SpectraSuite Data File
++++++++++++++++++++++++++++++++++++
Date: Thu Apr 16 19:55:24 BST 2015
User: mpfc3
Dark Spectrum Present: Yes
Reference Spectrum Present: Yes
Number of Sampled Component Spectra: 1
Spectrometers: USB2E3636
Integration Time (usec): 30000 (USB2E3636)
Spectra Averaged: 100 (USB2E3636)
Boxcar Smoothing: 0 (USB2E3636)
Correct for Electrical Dark: No (USB2E3636)
Strobe/Lamp Enabled: No (USB2E3636)
Correct for Detector Non-linearity: No (USB2E3636)
Correct for Stray Light: No (USB2E3636)
Number of Pixels in Processed Spectrum: 2048
>>>>>Begin Processed Spectral Data<<<<<
180.28	0.000
180.65	297.403
181.02	303.493
181.39	287.805
181.77	287.866
182.14	287.347
182.51	288.583
182.88	267.636
183.25	309.649
183.63	309.167
184.00	295.492
184.37	354.950
184.74	280.156
185.11	276.423
185.49	254.167
185.86	294.898
186.23	282.772
186.60	348.469
186.97	237.725
187.35	299.595
187.72	319.149
188.09	301.245
188.46	250.534
188.83	292.276
189.20	-218.671
189.58	-30.011
189.95	-30.403
190.32	-28.439
190.69	-27.790
191.06	-27.579
191.43	-28.367
191.81	-27.605
192.18	-29.434
192.55	-28.649
192.92	-35.102
193.29	-28.487
193.66	-27.340
194.03	-29.842
194.41	-31.318
194.78	-28.278
195.15	-27.313
195.52	-31.040
195.89	-24.021
196.26	-29.506
196.63	-29.769
197.01	-30.038
197.38	-30.093
197.75	-28.060
198.12	-32.231
198.49	-30.587
198.86	-31.128
199.23	-26.854
199.60	-29.142
199.98	-29.915
200.35	-32.664
200.72	-31.880
201.09	-33.203
201.46	-29.485
201.83	-30.411
202.20	-27.102
202.57	-30.465
202.94	-29.831
203.31	-31.405
203.69	-24.461
204.06	-30.950
204.43	-28.901
204.80	-32.580
205.17	-30.005
205.54	-27.754
205.91	-30.804
206.28	-32.402
206.65	-31.052
207.02	-31.657
207.39	-33.639
207.76	-30.536
208.14	-27.049
208.51	-28.927
208.88	-28.412
209.25	-26.835
209.62	-30.765
209.99	-32.658
210.36	-29.356
210.73	-28.711
211.10	-34.102
211.47	-34.357
211.84	-28.153
212.21	-33.528
212.58	-32.090
212.95	-36.852
213.32	-31.265
213.69	-28.947
214.06	-32.226
214.43	-36.753
214.80	-34.641
215.17	-34.909
215.55	-29.687
215.92	-30.845
216.29	-31.877
216.66	-32.500
217.03	-36.880
217.40	-32.168
217.77	-37.349
218.14	-34.054
218.51	-33.659
218.88	-39.536
219.25	-31.556
219.62	-39.437
219.99	-36.069
220.36	-31.983
220.73	-33.954
221.10	-33.636
221.47	-36.352
221.84	-35.369
222.21	-36.005
222.58	-35.891
222.95	-36.028
223.32	-34.791
223.69	-33.989
224.06	-34.049
224.43	-34.429
224.80	-34.535
225.17	-35.584
225.54	-35.695
225.91	-38.323
226.27	-43.874
226.64	-34.395
227.01	-32.340
227.38	-35.151
227.75	-37.980
228.12	-40.837
228.49	-34.924
228.86	-43.217
229.23	-38.201
229.60	-39.721
229.97	-39.061
230.34	-35.380
230.71	-34.271
231.08	-37.988
231.45	-44.633
231.82	-32.169
232.19	-36.930
232.56	-33.179
232.93	-40.042
233.30	-36.307
233.66	-36.828
234.03	-36.885
234.40	-40.258
234.77	-38.013
235.14	-44.060
235.51	-45.359
235.88	-37.473
236.25	-39.416
236.62	-35.095
236.99	-43.356
237.36	-38.654
237.73	-42.302
238.09	-44.218
238.46	-36.172
238.83	-40.770
239.20	-43.773
239.57	-42.210
239.94	-39.625
240.31	-43.002
240.68	-44.940
241.05	-37.509
241.41	-42.814
241.78	-45.073
242.15	-44.707
242.52	-45.707
242.89	-43.783
243.26	-40.087
243.63	-51.193
244.00	-45.792
244.36	-41.067
244.73	-47.147
245.10	-44.820
245.47	-48.193
245.84	-45.760
246.21	-44.184
246.58	-44.605
246.94	-43.096
247.31	-41.737
247.68	-40.403
248.05	-50.396
248.42	-41.729
248.79	-48.128
249.15	-50.000
249.52	-43.165
249.89	-46.462
250.26	-44.761
250.63	-42.590
251.00	-42.381
251.36	-50.577
251.73	-45.337
252.10	-44.896
252.47	-53.808
252.84	-39.343
253.20	-44.298
253.57	-45.785
253.94	-47.580
254.31	-48.348
254.68	-45.426
255.05	-52.241
255.41	-38.338
255.78	-48.379
256.15	-40.430
256.52	-42.633
256.88	-43.168
257.25	-43.569
257.62	-48.788
257.99	-54.202
258.36	-42.463
258.72	-45.985
259.09	-35.471
259.46	-48.338
259.83	-41.358
260.19	-49.793
260.56	-43.285
260.93	-50.450
261.30	-48.619
261.67	-47.937
262.03	-45.961
262.40	-47.937
262.77	-45.814
263.14	-51.525
263.50	-43.611
263.87	-42.403
264.24	-40.552
264.61	-46.377
264.97	-44.453
265.34	-39.067
265.71	-42.821
266.07	-43.730
266.44	-43.392
266.81	-42.671
267.18	-45.315
267.54	-48.720
267.91	-45.270
268.28	-49.362
268.64	-52.474
269.01	-52.570
269.38	-47.954
269.75	-48.745
270.11	-47.742
270.48	-46.667
270.85	-47.596
271.21	-41.167
271.58	-50.206
271.95	-47.469
272.32	-45.462
272.68	-50.814
273.05	-50.647
273.42	-50.940
273.78	-47.445
274.15	-47.910
274.52	-53.547
274.88	-47.270
275.25	-50.130
275.62	-46.313
275.98	-46.053
276.35	-51.078
276.72	-48.252
277.08	-52.429
277.45	-50.969
277.82	-46.358
278.18	-42.314
278.55	-45.719
278.92	-47.731
279.28	-50.254
279.65	-55.833
280.01	-51.157
280.38	-45.843
280.75	-44.130
281.11	-43.954
281.48	-51.786
281.85	-45.222
282.21	-43.447
282.58	-50.294
282.95	-46.253
283.31	-49.832
283.68	-53.001
284.04	-53.394
284.41	-47.866
284.78	-50.415
285.14	-46.957
285.51	-49.702
285.87	-46.667
286.24	-44.871
286.61	-51.709
286.97	-46.700
287.34	-47.925
287.70	-47.619
288.07	-42.492
288.44	-48.290
288.80	-45.346
289.17	-45.156
289.53	-49.331
289.90	-49.100
290.26	-51.500
290.63	-52.541
291.00	-51.451
291.36	-49.213
291.73	-53.568
292.09	-44.941
292.46	-46.566
292.82	-44.084
293.19	-44.192
293.56	-50.445
293.92	-50.249
294.29	-54.145
294.65	-49.298
295.02	-47.159
295.38	-49.913
295.75	-48.617
296.11	-48.511
296.48	-54.122
296.84	-49.450
297.21	-38.118
297.57	-38.449
297.94	-47.043
298.30	-47.119
298.67	-48.938
299.04	-37.500
299.40	-45.970
299.77	-44.226
300.13	-44.900
300.50	-47.064
300.86	-40.325
301.23	-38.321
301.59	-46.650
301.96	-47.642
302.32	-49.252
302.69	-44.152
303.05	-44.681
303.42	-43.645
303.78	-45.975
304.14	-42.755
304.51	-40.031
304.87	-43.151
305.24	-38.813
305.60	-42.281
305.97	-36.441
306.33	-36.968
306.70	-35.876
307.06	-40.511
307.43	-38.765
307.79	-34.268
308.16	-42.948
308.52	-45.282
308.88	-43.567
309.25	-40.746
309.61	-46.819
309.98	-50.792
310.34	-37.547
310.71	-40.724
311.07	-37.997
311.44	-40.713
311.80	-40.541
312.16	-44.344
312.53	-37.214
312.89	-36.167
313.26	-42.984
313.62	-41.048
313.98	-36.196
314.35	-38.505
314.71	-33.428
315.08	-36.069
315.44	-40.250
315.80	-35.096
316.17	-39.004
316.53	-33.035
316.90	-40.730
317.26	-36.172
317.62	-36.525
317.99	-37.312
318.35	-34.335
318.72	-33.030
319.08	-30.599
319.44	-37.191
319.81	-31.511
320.17	-34.556
320.53	-29.644
320.90	-31.184
321.26	-31.921
321.62	-31.674
321.99	-30.835
322.35	-33.717
322.72	-31.288
323.08	-31.779
323.44	-34.163
323.81	-33.542
324.17	-31.500
324.53	-32.812
324.90	-25.317
325.26	-29.186
325.62	-31.407
325.99	-31.112
326.35	-33.447
326.71	-28.736
327.08	-27.018
327.44	-27.875
327.80	-23.722
328.16	-25.273
328.53	-31.740
328.89	-27.987
329.25	-28.619
329.62	-19.728
329.98	-24.672
330.34	-23.194
330.71	-25.842
331.07	-22.176
331.43	-21.393
331.79	-21.498
332.16	-18.994
332.52	-23.329
332.88	-23.403
333.24	-22.080
333.61	-20.998
333.97	-20.283
334.33	-21.837
334.70	-22.286
335.06	-17.901
335.42	-20.914
335.78	-19.883
336.15	-21.049
336.51	-21.251
336.87	-17.325
337.23	-19.108
337.60	-17.481
337.96	-20.705
338.32	-17.433
338.68	-18.044
339.04	-15.444
339.41	-17.079
339.77	-15.071
340.13	-19.459
340.49	-16.435
340.86	-15.630
341.22	-16.796
341.58	-16.082
341.94	-15.315
342.30	-17.047
342.67	-13.809
343.03	-15.378
343.39	-13.803
343.75	-14.164
344.11	-14.672
344.48	-14.958
344.84	-13.893
345.20	-15.260
345.56	-14.492
345.92	-13.359
346.28	-14.312
346.65	-11.422
347.01	-15.197
347.37	-11.950
347.73	-13.153
348.09	-10.529
348.45	-13.476
348.82	-11.124
349.18	-10.977
349.54	-10.471
349.90	-10.170
350.26	-11.874
350.62	-9.948
350.98	-10.138
351.35	-10.998
351.71	-10.436
352.07	-9.124
352.43	-11.137
352.79	-9.304
353.15	-10.601
353.51	-9.065
353.87	-9.551
354.24	-9.535
354.60	-9.594
354.96	-10.537
355.32	-9.319
355.68	-8.839
356.04	-7.923
356.40	-8.326
356.76	-7.753
357.12	-6.901
357.48	-8.344
357.85	-8.442
358.21	-8.038
358.57	-8.373
358.93	-8.092
359.29	-8.908
359.65	-6.923
360.01	-7.035
360.37	-7.079
360.73	-6.997
361.09	-7.038
361.45	-6.462
361.81	-6.388
362.17	-6.165
362.53	-6.167
362.89	-6.608
363.25	-5.753
363.62	-5.739
363.98	-6.676
364.34	-6.070
364.70	-4.818
365.06	-5.982
365.42	-5.926
365.78	-5.768
366.14	-5.905
366.50	-5.137
366.86	-5.533
367.22	-5.311
367.58	-6.003
367.94	-5.194
368.30	-5.171
368.66	-4.404
369.02	-5.462
369.38	-5.241
369.74	-4.486
370.10	-4.592
370.46	-4.687
370.82	-3.876
371.18	-5.130
371.54	-4.489
371.90	-4.093
372.26	-4.091
372.62	-3.826
372.98	-4.097
373.33	-3.881
373.69	-3.983
374.05	-3.009
374.41	-3.889
374.77	-3.379
375.13	-3.986
375.49	-3.359
375.85	-3.790
376.21	-3.109
376.57	-3.191
376.93	-3.131
377.29	-3.337
377.65	-2.410
378.01	-2.720
378.37	-2.629
378.73	-2.166
379.08	-3.067
379.44	-2.625
379.80	-2.630
380.16	-2.345
380.52	-2.786
380.88	-1.965
381.24	-2.363
381.60	-2.082
381.96	-1.661
382.32	-1.958
382.67	-1.469
383.03	-1.072
383.39	-1.803
383.75	-1.821
384.11	-1.268
384.47	-0.997
384.83	-0.960
385.19	-0.870
385.54	-0.983
385.90	-0.824
386.26	-0.244
386.62	-0.459
386.98	-0.479
387.34	-0.805
387.70	-0.103
388.05	-0.532
388.41	0.113
388.77	0.305
389.13	0.560
389.49	0.469
389.85	0.000
390.20	0.625
390.56	1.058
390.92	0.781
391.28	0.553
391.64	1.103
391.99	1.318
392.35	1.499
392.71	1.550
393.07	1.332
393.43	1.286
393.78	2.149
394.14	1.890
394.50	2.206
394.86	2.076
395.22	2.140
395.57	2.372
395.93	2.310
396.29	2.748
396.65	2.662
397.00	2.533
397.36	2.931
397.72	2.822
398.08	3.104
398.43	3.373
398.79	3.477
399.15	3.359
399.51	3.498
399.86	3.903
400.22	3.945
400.58	4.324
400.94	4.051
401.29	4.378
401.65	4.382
402.01	4.016
402.37	4.765
402.72	4.588
403.08	4.928
403.44	5.114
403.79	5.444
404.15	5.034
404.51	5.517
404.86	5.400
405.22	5.997
405.58	5.517
405.94	5.632
406.29	6.069
406.65	6.345
407.01	6.158
407.36	6.205
407.72	6.382
408.08	6.352
408.43	6.736
408.79	6.912
409.15	6.861
409.50	6.976
409.86	6.951
410.22	7.056
410.57	7.397
410.93	7.389
411.29	7.586
411.64	7.569
412.00	7.759
412.35	7.942
412.71	8.196
413.07	8.129
413.42	8.356
413.78	8.411
414.14	8.282
414.49	8.600
414.85	8.633
415.20	8.836
415.56	9.051
415.92	9.122
416.27	9.112
416.63	9.389
416.98	9.318
417.34	9.376
417.70	9.639
418.05	9.558
418.41	9.808
418.76	9.793
419.12	9.974
419.47	10.056
419.83	10.185
420.19	10.460
420.54	10.809
420.90	10.563
421.25	10.569
421.61	10.590
421.96	10.906
422.32	10.966
422.67	11.192
423.03	11.391
423.39	11.015
423.74	11.525
424.10	11.437
424.45	11.702
424.81	11.812
425.16	11.666
425.52	11.962
425.87	12.096
426.23	12.240
426.58	12.161
426.94	12.371
427.29	12.614
427.65	12.598
428.00	12.607
428.36	12.860
428.71	12.878
429.07	12.907
429.42	13.329
429.78	13.089
430.13	13.265
430.49	13.284
430.84	13.482
431.19	13.479
431.55	13.660
431.90	13.738
432.26	13.736
432.61	13.977
432.97	13.994
433.32	14.228
433.68	14.315
434.03	14.310
434.39	14.427
434.74	14.454
435.09	14.635
435.45	14.747
435.80	14.913
436.16	14.780
436.51	15.041
436.86	15.041
437.22	15.225
437.57	15.225
437.93	15.371
438.28	15.395
438.63	15.469
438.99	15.522
439.34	15.619
439.70	15.884
440.05	15.819
440.40	15.791
440.76	16.085
441.11	15.990
441.47	16.146
441.82	16.234
442.17	16.357
442.53	16.372
442.88	16.554
443.23	16.572
443.59	16.634
443.94	16.700
444.29	16.961
444.65	16.866
445.00	17.034
445.35	17.116
445.71	17.073
446.06	17.263
446.41	17.252
446.77	17.421
447.12	17.517
447.47	17.622
447.83	17.725
448.18	17.666
448.53	17.898
448.89	17.874
449.24	17.980
449.59	17.998
449.94	18.135
450.30	18.102
450.65	18.371
451.00	18.316
451.36	18.506
451.71	18.583
452.06	18.591
452.41	18.703
452.77	18.798
453.12	18.863
453.47	19.011
453.82	19.136
454.18	19.049
454.53	19.191
454.88	19.291
455.23	19.329
455.59	19.436
455.94	19.503
456.29	19.596
456.64	19.665
457.00	19.741
457.35	19.772
457.70	19.937
458.05	19.905
458.40	20.073
458.76	20.195
459.11	20.191
459.46	20.281
459.81	20.314
460.16	20.484
460.52	20.476
460.87	20.698
461.22	20.735
461.57	20.690
461.92	20.912
462.28	21.027
462.63	21.000
462.98	21.022
463.33	21.144
463.68	21.262
464.03	21.307
464.38	21.348
464.74	21.363
465.09	21.456
465.44	21.678
465.79	21.629
466.14	21.763
466.49	21.713
466.84	21.775
467.20	21.826
467.55	21.992
467.90	21.972
468.25	22.067
468.60	22.109
468.95	22.135
469.30	22.208
469.65	22.348
470.00	22.356
470.36	22.455
470.71	22.510
471.06	22.465
471.41	22.630
471.76	22.483
472.11	22.608
472.46	22.674
472.81	22.779
473.16	22.776
473.51	22.768
473.86	22.703
474.21	22.825
474.56	22.954
474.91	22.978
475.26	22.911
475.62	22.947
475.97	22.886
476.32	23.003
476.67	23.045
477.02	22.981
477.37	23.038
477.72	23.070
478.07	23.023
478.42	23.049
478.77	23.138
479.12	23.030
479.47	23.158
479.82	23.169
480.17	23.178
480.52	23.208
480.87	23.130
481.22	23.115
481.57	23.118
481.92	23.146
482.27	23.164
482.62	23.170
482.97	23.160
483.32	23.208
483.67	23.196
484.02	23.189
484.36	23.203
484.71	23.199
485.06	23.280
485.41	23.248
485.76	23.309
486.11	23.344
486.46	23.358
486.81	23.447
487.16	23.388
487.51	23.399
487.86	23.480
488.21	23.477
488.56	23.653
488.91	23.641
489.25	23.674
489.60	23.789
489.95	23.736
490.30	23.868
490.65	23.925
491.00	23.998
491.35	24.085
491.70	24.110
492.05	24.109
492.39	24.223
492.74	24.227
493.09	24.301
493.44	24.386
493.79	24.453
494.14	24.573
494.49	24.562
494.83	24.703
495.18	24.706
495.53	24.876
495.88	24.865
496.23	24.989
496.58	25.051
496.92	25.073
497.27	25.135
497.62	25.250
497.97	25.368
498.32	25.435
498.67	25.469
499.01	25.454
499.36	25.563
499.71	25.640
500.06	25.718
500.41	25.772
500.75	25.820
501.10	25.911
501.45	25.907
501.80	25.921
502.14	26.072
502.49	26.034
502.84	26.157
503.19	26.218
503.53	26.249
503.88	26.254
504.23	26.296
504.58	26.333
504.92	26.362
505.27	26.474
505.62	26.442
505.97	26.440
506.31	26.557
506.66	26.582
507.01	26.550
507.36	26.649
507.70	26.611
508.05	26.665
508.40	26.668
508.74	26.596
509.09	26.601
509.44	26.639
509.79	26.603
510.13	26.594
510.48	26.520
510.83	26.555
511.17	26.497
511.52	26.474
511.87	26.458
512.21	26.513
512.56	26.511
512.91	26.516
513.25	26.565
513.60	26.607
513.95	26.579
514.29	26.637
514.64	26.621
514.98	26.735
515.33	26.752
515.68	26.830
516.02	26.887
516.37	26.849
516.72	26.899
517.06	26.951
517.41	26.972
517.75	27.032
518.10	27.021
518.45	27.024
518.79	27.102
519.14	27.091
519.48	27.114
519.83	27.156
520.18	27.203
520.52	27.198
520.87	27.145
521.21	27.235
521.56	27.281
521.90	27.237
522.25	27.251
522.60	27.186
522.94	27.298
523.29	27.276
523.63	27.268
523.98	27.309
524.32	27.230
524.67	27.209
525.01	27.254
525.36	27.152
525.70	27.150
526.05	27.129
526.39	27.092
526.74	27.096
527.08	26.994
527.43	26.969
527.77	26.931
528.12	26.853
528.46	26.839
528.81	26.770
529.15	26.684
529.50	26.632
529.84	26.523
530.19	26.484
530.53	26.393
530.88	26.332
531.22	26.252
531.57	26.116
531.91	26.003
532.26	25.879
532.60	25.741
532.94	25.612
533.29	25.508
533.63	25.353
533.98	25.210
534.32	25.084
534.67	24.869
535.01	24.758
535.35	24.563
535.70	24.422
536.04	24.211
536.39	24.028
536.73	23.851
537.07	23.704
537.42	23.491
537.76	23.289
538.11	23.074
538.45	22.857
538.79	22.746
539.14	22.521
539.48	22.316
539.82	22.178
540.17	21.976
540.51	21.823
540.85	21.714
541.20	21.518
541.54	21.403
541.89	21.263
542.23	21.166
542.57	20.993
542.92	20.960
543.26	20.858
543.60	20.764
543.94	20.741
544.29	20.658
544.63	20.526
544.97	20.572
545.32	20.565
545.66	20.543
546.00	20.506
546.35	20.472
546.69	20.538
547.03	20.498
547.37	20.518
547.72	20.536
548.06	20.569
548.40	20.612
548.75	20.684
549.09	20.699
549.43	20.759
549.77	20.844
550.12	20.911
550.46	20.939
550.80	21.092
551.14	21.124
551.49	21.237
551.83	21.394
552.17	21.503
552.51	21.617
552.85	21.716
553.20	21.878
553.54	22.010
553.88	22.210
554.22	22.332
554.56	22.539
554.91	22.764
555.25	22.967
555.59	23.100
555.93	23.349
556.27	23.574
556.62	23.765
556.96	24.011
557.30	24.211
557.64	24.368
557.98	24.574
558.32	24.805
558.67	25.090
559.01	25.300
559.35	25.474
559.69	25.745
560.03	25.955
560.37	26.170
560.71	26.369
561.05	26.568
561.40	26.724
561.74	27.003
562.08	27.207
562.42	27.332
562.76	27.527
563.10	27.736
563.44	27.890
563.78	28.050
564.12	28.231
564.46	28.387
564.81	28.497
565.15	28.642
565.49	28.767
565.83	28.883
566.17	28.932
566.51	29.006
566.85	29.175
567.19	29.216
567.53	29.297
567.87	29.360
568.21	29.411
568.55	29.408
568.89	29.424
569.23	29.510
569.57	29.589
569.91	29.529
570.25	29.519
570.59	29.585
570.93	29.550
571.27	29.523
571.61	29.482
571.95	29.477
572.29	29.366
572.63	29.373
572.97	29.301
573.31	29.260
573.65	29.133
573.99	29.115
574.33	29.002
574.67	28.993
575.01	28.868
575.35	28.765
575.69	28.640
576.03	28.593
576.37	28.478
576.71	28.361
577.05	28.197
577.39	28.053
577.73	27.971
578.06	27.837
578.40	27.701
578.74	27.574
579.08	27.409
579.42	27.255
579.76	27.128
580.10	26.917
580.44	26.727
580.78	26.616
581.12	26.397
581.45	26.230
581.79	26.058
582.13	25.897
582.47	25.746
582.81	25.569
583.15	25.411
583.49	25.279
583.83	25.116
584.16	24.916
584.50	24.789
584.84	24.650
585.18	24.580
585.52	24.496
585.86	24.289
586.19	24.120
586.53	24.093
586.87	23.881
587.21	23.722
587.55	23.544
587.88	23.481
588.22	23.336
588.56	23.126
588.90	22.946
589.24	22.834
589.57	22.613
589.91	22.455
590.25	22.250
590.59	22.069
590.92	21.956
591.26	21.744
591.60	21.472
591.94	21.304
592.27	21.054
592.61	20.846
592.95	20.576
593.29	20.327
593.62	20.119
593.96	19.858
594.30	19.583
594.64	19.287
594.97	19.003
595.31	18.671
595.65	18.321
595.98	17.976
596.32	17.633
596.66	17.276
597.00	16.867
597.33	16.508
597.67	16.076
598.01	15.647
598.34	15.241
598.68	14.892
599.02	14.473
599.35	14.066
599.69	13.715
600.03	13.377
600.36	13.030
600.70	12.752
601.03	12.392
601.37	12.122
601.71	11.880
602.04	11.621
602.38	11.363
602.72	11.096
603.05	10.850
603.39	10.647
603.72	10.399
604.06	10.137
604.40	9.959
604.73	9.671
605.07	9.449
605.40	9.228
605.74	8.962
606.08	8.685
606.41	8.455
606.75	8.224
607.08	7.957
607.42	7.728
607.75	7.484
608.09	7.224
608.42	6.973
608.76	6.705
609.10	6.456
609.43	6.239
609.77	6.027
610.10	5.775
610.44	5.530
610.77	5.320
611.11	5.095
611.44	4.857
611.78	4.656
612.11	4.454
612.45	4.241
612.78	4.062
613.12	3.862
613.45	3.682
613.79	3.515
614.12	3.313
614.46	3.133
614.79	3.024
615.13	2.868
615.46	2.735
615.79	2.595
616.13	2.460
616.46	2.350
616.80	2.256
617.13	2.154
617.47	2.067
617.80	1.993
618.13	1.917
618.47	1.824
618.80	1.790
619.14	1.701
619.47	1.621
619.81	1.575
620.14	1.507
620.47	1.476
620.81	1.413
621.14	1.361
621.47	1.320
621.81	1.256
622.14	1.231
622.48	1.179
622.81	1.171
623.14	1.133
623.48	1.133
623.81	1.075
624.14	1.050
624.48	0.991
624.81	1.005
625.14	0.994
625.48	0.965
625.81	0.959
626.14	0.940
626.48	0.950
626.81	0.939
627.14	0.927
627.48	0.931
627.81	0.924
628.14	0.971
628.47	0.979
628.81	0.987
629.14	1.016
629.47	1.020
629.81	1.068
630.14	1.091
630.47	1.120
630.80	1.170
631.14	1.229
631.47	1.287
631.80	1.359
632.13	1.410
632.47	1.469
632.80	1.556
633.13	1.645
633.46	1.774
633.79	1.870
634.13	1.958
634.46	2.083
634.79	2.215
635.12	2.353
635.45	2.480
635.79	2.633
636.12	2.775
636.45	2.973
636.78	3.124
637.11	3.297
637.45	3.491
637.78	3.669
638.11	3.887
638.44	4.062
638.77	4.322
639.10	4.518
639.44	4.742
639.77	4.962
640.10	5.238
640.43	5.434
640.76	5.686
641.09	5.924
641.42	6.141
641.75	6.352
642.08	6.617
642.42	6.839
642.75	7.113
643.08	7.350
643.41	7.577
643.74	7.814
644.07	8.028
644.40	8.257
644.73	8.464
645.06	8.685
645.39	8.942
645.72	9.130
646.05	9.328
646.38	9.533
646.72	9.706
647.05	9.895
647.38	10.106
647.71	10.243
648.04	10.414
648.37	10.547
648.70	10.648
649.03	10.814
649.36	10.917
649.69	11.000
650.02	11.093
650.35	11.154
650.68	11.227
651.01	11.217
651.34	11.242
651.67	11.247
652.00	11.238
652.33	11.177
652.66	11.146
652.99	11.015
653.31	10.947
653.64	10.777
653.97	10.689
654.30	10.491
654.63	10.275
654.96	10.083
655.29	9.884
655.62	9.680
655.95	9.436
656.28	9.208
656.61	8.942
656.94	8.676
657.27	8.441
657.60	8.155
657.92	7.956
658.25	7.715
658.58	7.475
658.91	7.248
659.24	7.064
659.57	6.857
659.90	6.666
660.23	6.473
660.55	6.297
660.88	6.106
661.21	5.958
661.54	5.784
661.87	5.627
662.20	5.461
662.52	5.338
662.85	5.190
663.18	5.037
663.51	4.875
663.84	4.753
664.16	4.581
664.49	4.487
664.82	4.327
665.15	4.226
665.48	4.120
665.80	3.985
666.13	3.889
666.46	3.794
666.79	3.682
667.12	3.600
667.44	3.509
667.77	3.367
668.10	3.330
668.43	3.242
668.75	3.171
669.08	3.135
669.41	3.026
669.73	2.965
670.06	2.917
670.39	2.860
670.72	2.794
671.04	2.727
671.37	2.721
671.70	2.659
672.02	2.600
672.35	2.565
672.68	2.522
673.00	2.526
673.33	2.473
673.66	2.439
673.98	2.439
674.31	2.371
674.64	2.332
674.96	2.346
675.29	2.297
675.62	2.287
675.94	2.265
676.27	2.241
676.60	2.260
676.92	2.242
677.25	2.240
677.58	2.225
677.90	2.210
678.23	2.215
678.55	2.199
678.88	2.163
679.21	2.168
679.53	2.159
679.86	2.136
680.18	2.107
680.51	2.107
680.83	2.092
681.16	2.109
681.49	2.064
681.81	2.046
682.14	2.029
682.46	2.018
682.79	2.006
683.11	1.977
683.44	1.952
683.76	1.924
684.09	1.922
684.41	1.926
684.74	1.901
685.06	1.898
685.39	1.877
685.71	1.852
686.04	1.840
686.36	1.826
686.69	1.801
687.01	1.801
687.34	1.752
687.66	1.762
687.99	1.749
688.31	1.731
688.64	1.705
688.96	1.691
689.29	1.664
689.61	1.645
689.93	1.644
690.26	1.588
690.58	1.598
690.91	1.523
691.23	1.515
691.56	1.476
691.88	1.478
692.20	1.404
692.53	1.369
692.85	1.343
693.18	1.297
693.50	1.270
693.82	1.203
694.15	1.147
694.47	1.105
694.79	1.034
695.12	1.020
695.44	0.955
695.76	0.911
696.09	0.854
696.41	0.804
696.73	0.757
697.06	0.704
697.38	0.661
697.70	0.584
698.03	0.529
698.35	0.482
698.67	0.450
699.00	0.416
699.32	0.385
699.64	0.313
699.97	0.274
700.29	0.224
700.61	0.208
700.93	0.175
701.26	0.145
701.58	0.115
701.90	0.096
702.22	0.048
702.55	-0.004
702.87	-0.004
703.19	-0.017
703.51	-0.032
703.84	-0.024
704.16	-0.066
704.48	-0.056
704.80	-0.081
705.13	-0.105
705.45	-0.104
705.77	-0.110
706.09	-0.113
706.41	-0.151
706.74	-0.160
707.06	-0.150
707.38	-0.164
707.70	-0.195
708.02	-0.225
708.34	-0.208
708.67	-0.213
708.99	-0.207
709.31	-0.204
709.63	-0.258
709.95	-0.235
710.27	-0.246
710.59	-0.258
710.92	-0.229
711.24	-0.207
711.56	-0.247
711.88	-0.271
712.20	-0.210
712.52	-0.269
712.84	-0.284
713.16	-0.240
713.48	-0.256
713.80	-0.270
714.12	-0.274
714.45	-0.277
714.77	-0.273
715.09	-0.249
715.41	-0.282
715.73	-0.286
716.05	-0.322
716.37	-0.280
716.69	-0.309
717.01	-0.329
717.33	-0.287
717.65	-0.318
717.97	-0.322
718.29	-0.330
718.61	-0.349
718.93	-0.359
719.25	-0.380
719.57	-0.335
719.89	-0.374
720.21	-0.369
720.53	-0.353
720.85	-0.353
721.17	-0.371
721.49	-0.371
721.81	-0.368
722.13	-0.359
722.45	-0.407
722.77	-0.452
723.09	-0.369
723.41	-0.373
723.72	-0.406
724.04	-0.451
724.36	-0.488
724.68	-0.490
725.00	-0.476
725.32	-0.480
725.64	-0.434
725.96	-0.572
726.28	-0.513
726.60	-0.529
726.91	-0.596
727.23	-0.525
727.55	-0.555
727.87	-0.532
728.19	-0.577
728.51	-0.572
728.83	-0.574
729.14	-0.550
729.46	-0.517
729.78	-0.572
730.10	-0.580
730.42	-0.635
730.74	-0.642
731.05	-0.586
731.37	-0.642
731.69	-0.673
732.01	-0.670
732.33	-0.652
732.64	-0.658
732.96	-0.643
733.28	-0.637
733.60	-0.684
733.92	-0.710
734.23	-0.777
734.55	-0.572
734.87	-0.641
735.19	-0.716
735.50	-0.664
735.82	-0.672
736.14	-0.634
736.45	-0.685
736.77	-0.706
737.09	-0.700
737.41	-0.692
737.72	-0.660
738.04	-0.709
738.36	-0.698
738.67	-0.706
738.99	-0.676
739.31	-0.669
739.63	-0.670
739.94	-0.609
740.26	-0.728
740.58	-0.633
740.89	-0.620
741.21	-0.648
741.52	-0.640
741.84	-0.644
742.16	-0.667
742.47	-0.614
742.79	-0.692
743.11	-0.652
743.42	-0.682
743.74	-0.571
744.05	-0.634
744.37	-0.645
744.69	-0.616
745.00	-0.566
745.32	-0.603
745.63	-0.592
745.95	-0.653
746.27	-0.616
746.58	-0.607
746.90	-0.582
747.21	-0.579
747.53	-0.630
747.84	-0.575
748.16	-0.567
748.47	-0.659
748.79	-0.648
749.10	-0.605
749.42	-0.564
749.74	-0.581
750.05	-0.606
750.37	-0.590
750.68	-0.584
751.00	-0.581
751.31	-0.540
751.62	-0.547
751.94	-0.518
752.25	-0.599
752.57	-0.515
752.88	-0.566
753.20	-0.518
753.51	-0.562
753.83	-0.491
754.14	-0.476
754.46	-0.497
754.77	-0.547
755.08	-0.507
755.40	-0.464
755.71	-0.491
756.03	-0.510
756.34	-0.520
756.66	-0.560
756.97	-0.534
757.28	-0.545
757.60	-0.527
757.91	-0.509
758.22	-0.447
758.54	-0.472
758.85	-0.474
759.17	-0.443
759.48	-0.431
759.79	-0.505
760.11	-0.499
760.42	-0.443
760.73	-0.525
761.05	-0.425
761.36	-0.493
761.67	-0.470
761.99	-0.477
762.30	-0.461
762.61	-0.476
762.92	-0.452
763.24	-0.443
763.55	-0.432
763.86	-0.464
764.18	-0.436
764.49	-0.473
764.80	-0.516
765.11	-0.445
765.43	-0.489
765.74	-0.456
766.05	-0.442
766.36	-0.414
766.68	-0.463
766.99	-0.466
767.30	-0.438
767.61	-0.513
767.93	-0.501
768.24	-0.434
768.55	-0.453
768.86	-0.468
769.17	-0.466
769.49	-0.450
769.80	-0.497
770.11	-0.433
770.42	-0.435
770.73	-0.456
771.04	-0.418
771.36	-0.440
771.67	-0.484
771.98	-0.448
772.29	-0.438
772.60	-0.446
772.91	-0.477
773.22	-0.423
773.54	-0.502
773.85	-0.439
774.16	-0.458
774.47	-0.512
774.78	-0.476
775.09	-0.488
775.40	-0.505
775.71	-0.496
776.02	-0.486
776.33	-0.463
776.64	-0.489
776.96	-0.501
777.27	-0.498
777.58	-0.526
777.89	-0.532
778.20	-0.461
778.51	-0.558
778.82	-0.489
779.13	-0.521
779.44	-0.510
779.75	-0.542
780.06	-0.609
780.37	-0.615
780.68	-0.546
780.99	-0.557
781.30	-0.479
781.61	-0.521
781.92	-0.567
782.23	-0.499
782.54	-0.594
782.85	-0.549
783.16	-0.553
783.47	-0.578
783.78	-0.509
784.08	-0.599
784.39	-0.533
784.70	-0.565
785.01	-0.584
785.32	-0.577
785.63	-0.593
785.94	-0.588
786.25	-0.679
786.56	-0.589
786.87	-0.619
787.18	-0.599
787.48	-0.621
787.79	-0.647
788.10	-0.654
788.41	-0.693
788.72	-0.683
789.03	-0.689
789.34	-0.728
789.64	-0.678
789.95	-0.688
790.26	-0.687
790.57	-0.789
790.88	-0.689
791.19	-0.751
791.49	-0.736
791.80	-0.693
792.11	-0.681
792.42	-0.759
792.73	-0.803
793.03	-0.744
793.34	-0.796
793.65	-0.833
793.96	-0.761
794.27	-0.765
794.57	-0.763
794.88	-0.883
795.19	-0.739
795.50	-0.825
795.80	-0.879
796.11	-0.848
796.42	-0.873
796.72	-0.837
797.03	-0.928
797.34	-0.832
797.65	-0.852
797.95	-0.858
798.26	-0.922
798.57	-0.968
798.87	-0.967
799.18	-0.955
799.49	-0.909
799.79	-0.965
800.10	-0.996
800.41	-0.994
800.71	-1.009
801.02	-1.044
801.33	-0.971
801.63	-1.006
801.94	-1.067
802.24	-1.085
802.55	-1.048
802.86	-1.160
803.16	-1.152
803.47	-1.218
803.77	-1.104
804.08	-1.062
804.39	-1.162
804.69	-1.055
805.00	-1.133
805.30	-1.086
805.61	-1.173
805.91	-1.280
806.22	-1.229
806.53	-1.247
806.83	-1.247
807.14	-1.219
807.44	-1.286
807.75	-1.283
808.05	-1.314
808.36	-1.245
808.66	-1.205
808.97	-1.400
809.27	-1.379
809.58	-1.467
809.88	-1.390
810.19	-1.296
810.49	-1.401
810.80	-1.293
811.10	-1.313
811.41	-1.366
811.71	-1.446
812.01	-1.545
812.32	-1.505
812.62	-1.455
812.93	-1.438
813.23	-1.362
813.54	-1.550
813.84	-1.472
814.14	-1.643
814.45	-1.633
814.75	-1.608
815.06	-1.678
815.36	-1.640
815.66	-1.778
815.97	-1.783
816.27	-1.930
816.58	-1.713
816.88	-1.774
817.18	-1.735
817.49	-1.829
817.79	-1.910
818.09	-1.815
818.40	-1.876
818.70	-1.850
819.00	-1.952
819.31	-1.878
819.61	-2.058
819.91	-2.136
820.21	-1.937
820.52	-2.164
820.82	-2.072
821.12	-2.095
821.43	-2.130
821.73	-2.215
822.03	-2.007
822.33	-2.175
822.64	-1.998
822.94	-2.387
823.24	-2.338
823.54	-2.443
823.85	-2.655
824.15	-2.366
824.45	-2.368
824.75	-2.570
825.05	-2.568
825.36	-2.526
825.66	-2.640
825.96	-2.937
826.26	-2.784
826.56	-3.074
826.87	-2.957
827.17	-2.732
827.47	-2.877
827.77	-2.981
828.07	-3.273
828.37	-3.041
828.67	-3.142
828.98	-3.201
829.28	-3.202
829.58	-3.291
829.88	-3.392
830.18	-3.713
830.48	-3.680
830.78	-3.469
831.08	-3.482
831.38	-3.769
831.69	-3.848
831.99	-3.309
832.29	-4.475
832.59	-4.054
832.89	-4.233
833.19	-3.883
833.49	-4.034
833.79	-4.423
834.09	-4.286
834.39	-4.259
834.69	-4.680
834.99	-4.734
835.29	-4.784
835.59	-4.700
835.89	-5.383
836.19	-4.897
836.49	-4.282
836.79	-5.787
837.09	-5.544
837.39	-4.950
837.69	-5.668
837.99	-5.733
838.29	-6.130
838.59	-6.324
838.89	-6.672
839.19	-6.750
839.49	-6.125
839.79	-6.373
840.09	-6.378
840.39	-7.324
840.68	-6.502
840.98	-7.083
841.28	-7.160
841.58	-7.593
841.88	-8.294
842.18	-7.272
842.48	-8.211
842.78	-8.540
843.08	-8.604
843.37	-8.238
843.67	-8.369
843.97	-8.536
844.27	-8.645
844.57	-9.026
844.87	-10.257
845.16	-10.560
845.46	-9.799
845.76	-9.631
846.06	-10.743
846.36	-10.475
846.66	-10.715
846.95	-9.887
847.25	-10.412
847.55	-13.108
847.85	-12.377
848.14	-12.000
848.44	-10.496
848.74	-13.355
849.04	-13.363
849.33	-14.363
849.63	-14.740
849.93	-12.850
850.23	-16.144
850.52	-14.594
850.82	-14.462
851.12	-19.126
851.42	-16.450
851.71	-16.579
852.01	-18.979
852.31	-17.259
852.60	-15.573
852.90	-18.353
853.20	-18.275
853.49	-18.198
853.79	-18.138
854.09	-19.774
854.38	-19.285
854.68	-20.749
854.98	-18.410
855.27	-20.026
855.57	-23.788
855.86	-19.409
856.16	-22.244
856.46	-21.551
856.75	-24.718
857.05	-22.985
857.34	-22.245
857.64	-24.982
857.94	-19.932
858.23	-23.996
858.53	-23.090
858.82	-23.063
859.12	-21.335
859.41	-24.332
859.71	-26.601
860.01	-26.432
860.30	-22.084
860.60	-27.036
860.89	-25.944
861.19	-24.044
861.48	-23.400
861.78	-24.368
862.07	-23.570
862.37	-22.608
862.66	-25.359
862.96	-26.196
863.25	-24.619
863.55	-25.553
863.84	-22.591
864.13	-25.764
864.43	-22.170
864.72	-22.829
865.02	-21.989
865.31	-24.689
865.61	-23.700
865.90	-22.243
866.19	-20.198
866.49	-28.840
866.78	-22.894
867.08	-25.997
867.37	-25.171
867.66	-23.641
867.96	-23.077
868.25	-27.498
868.55	-23.981
868.84	-24.556
869.13	-26.743
869.43	-24.515
869.72	-26.154
870.01	-27.349
870.31	-24.706
870.60	-25.353
870.89	-24.431
871.19	-24.847
871.48	-25.577
871.77	-27.747
872.07	-26.020
872.36	-25.392
872.65	-24.035
872.94	-22.968
873.24	-25.536
873.53	-29.728
873.82	-25.503
874.11	-26.057
874.41	-24.357
874.70	-26.392
>>>>>End Processed Spectral Data<<<<<
