SpectraSuite Data File
++++++++++++++++++++++++++++++++++++
Date: Thu Apr 16 20:02:35 BST 2015
User: mpfc3
Dark Spectrum Present: Yes
Reference Spectrum Present: Yes
Number of Sampled Component Spectra: 1
Spectrometers: USB2E3636
Integration Time (usec): 30000 (USB2E3636)
Spectra Averaged: 100 (USB2E3636)
Boxcar Smoothing: 0 (USB2E3636)
Correct for Electrical Dark: No (USB2E3636)
Strobe/Lamp Enabled: No (USB2E3636)
Correct for Detector Non-linearity: No (USB2E3636)
Correct for Stray Light: No (USB2E3636)
Number of Pixels in Processed Spectrum: 2048
>>>>>Begin Processed Spectral Data<<<<<
180.28	0.000
180.65	387.879
181.02	398.253
181.39	362.195
181.77	400.418
182.14	368.980
182.51	339.764
182.88	334.545
183.25	374.561
183.63	376.250
184.00	372.541
184.37	463.861
184.74	343.580
185.11	379.675
185.49	324.653
185.86	427.041
186.23	357.303
186.60	457.143
186.97	288.623
187.35	363.563
187.72	407.234
188.09	396.680
188.46	332.740
188.83	361.382
189.20	-272.468
189.58	-38.889
189.95	-42.721
190.32	-39.913
190.69	-38.036
191.06	-40.673
191.43	-37.603
191.81	-41.353
192.18	-39.957
192.55	-37.514
192.92	-41.625
193.29	-38.841
193.66	-38.404
194.03	-38.789
194.41	-41.885
194.78	-41.123
195.15	-41.695
195.52	-39.736
195.89	-33.734
196.26	-43.649
196.63	-40.247
197.01	-40.303
197.38	-40.688
197.75	-38.803
198.12	-41.708
198.49	-39.418
198.86	-40.356
199.23	-37.500
199.60	-38.928
199.98	-41.880
200.35	-41.217
200.72	-45.413
201.09	-41.908
201.46	-38.103
201.83	-41.775
202.20	-38.832
202.57	-40.693
202.94	-44.270
203.31	-44.738
203.69	-35.668
204.06	-40.447
204.43	-40.330
204.80	-40.768
205.17	-41.854
205.54	-39.695
205.91	-42.384
206.28	-42.727
206.65	-38.787
207.02	-39.366
207.39	-41.906
207.76	-38.377
208.14	-38.852
208.51	-40.339
208.88	-43.008
209.25	-38.116
209.62	-43.037
209.99	-42.849
210.36	-38.624
210.73	-44.298
211.10	-45.213
211.47	-50.590
211.84	-36.781
212.21	-44.529
212.58	-43.931
212.95	-50.328
213.32	-42.517
213.69	-42.644
214.06	-42.255
214.43	-48.647
214.80	-47.314
215.17	-49.527
215.55	-40.914
215.92	-38.834
216.29	-41.440
216.66	-40.298
217.03	-47.878
217.40	-43.998
217.77	-50.223
218.14	-46.168
218.51	-46.854
218.88	-52.994
219.25	-47.055
219.62	-54.033
219.99	-48.919
220.36	-45.885
220.73	-50.770
221.10	-43.981
221.47	-50.225
221.84	-47.646
222.21	-46.775
222.58	-48.635
222.95	-46.054
223.32	-45.909
223.69	-45.212
224.06	-45.460
224.43	-44.045
224.80	-46.789
225.17	-49.675
225.54	-53.610
225.91	-49.434
226.27	-43.610
226.64	-50.127
227.01	-43.616
227.38	-47.081
227.75	-51.401
228.12	-53.519
228.49	-48.575
228.86	-51.943
229.23	-53.279
229.60	-47.039
229.97	-48.447
230.34	-46.931
230.71	-47.940
231.08	-51.754
231.45	-55.014
231.82	-47.817
232.19	-48.660
232.56	-47.910
232.93	-54.545
233.30	-53.054
233.66	-50.783
234.03	-49.292
234.40	-52.507
234.77	-49.965
235.14	-56.228
235.51	-62.799
235.88	-54.507
236.25	-58.375
236.62	-51.233
236.99	-57.387
237.36	-51.754
237.73	-54.892
238.09	-61.073
238.46	-47.783
238.83	-54.942
239.20	-54.261
239.57	-54.037
239.94	-51.585
240.31	-58.448
240.68	-54.464
241.05	-52.300
241.41	-61.952
241.78	-56.532
242.15	-53.577
242.52	-61.765
242.89	-58.749
243.26	-55.588
243.63	-62.202
244.00	-58.453
244.36	-58.191
244.73	-66.403
245.10	-60.860
245.47	-64.819
245.84	-62.338
246.21	-59.668
246.58	-57.827
246.94	-57.360
247.31	-58.878
247.68	-56.833
248.05	-63.867
248.42	-56.781
248.79	-62.637
249.15	-61.490
249.52	-58.913
249.89	-59.198
250.26	-59.784
250.63	-54.460
251.00	-60.349
251.36	-64.992
251.73	-64.396
252.10	-55.178
252.47	-67.136
252.84	-49.927
253.20	-57.486
253.57	-62.258
253.94	-62.182
254.31	-64.464
254.68	-54.574
255.05	-64.140
255.41	-55.107
255.78	-65.964
256.15	-54.650
256.52	-56.505
256.88	-57.764
257.25	-60.772
257.62	-62.520
257.99	-69.039
258.36	-58.248
258.72	-58.719
259.09	-55.487
259.46	-69.054
259.83	-51.302
260.19	-69.644
260.56	-56.178
260.93	-64.865
261.30	-59.669
261.67	-66.089
262.03	-57.835
262.40	-68.399
262.77	-61.137
263.14	-64.716
263.50	-63.809
263.87	-55.194
264.24	-64.071
264.61	-57.166
264.97	-57.063
265.34	-52.446
265.71	-62.604
266.07	-62.540
266.44	-57.803
266.81	-62.785
267.18	-60.136
267.54	-60.694
267.91	-68.243
268.28	-66.468
268.64	-67.235
269.01	-69.840
269.38	-62.848
269.75	-73.420
270.11	-65.886
270.48	-68.608
270.85	-60.310
271.21	-61.791
271.58	-65.021
271.95	-60.747
272.32	-64.759
272.68	-63.068
273.05	-70.147
273.42	-66.923
273.78	-59.935
274.15	-63.629
274.52	-67.474
274.88	-68.003
275.25	-62.748
275.62	-63.463
275.98	-57.484
276.35	-65.174
276.72	-67.220
277.08	-66.332
277.45	-65.291
277.82	-57.036
278.18	-60.275
278.55	-70.034
278.92	-65.714
279.28	-63.621
279.65	-72.930
280.01	-64.867
280.38	-59.080
280.75	-59.284
281.11	-62.173
281.48	-59.578
281.85	-69.881
282.21	-62.864
282.58	-61.901
282.95	-57.937
283.31	-64.430
283.68	-70.245
284.04	-70.498
284.41	-67.866
284.78	-66.501
285.14	-60.115
285.51	-65.899
285.87	-66.345
286.24	-60.801
286.61	-70.256
286.97	-65.246
287.34	-67.739
287.70	-66.502
288.07	-62.624
288.44	-62.704
288.80	-60.547
289.17	-59.087
289.53	-67.809
289.90	-64.267
290.26	-65.917
290.63	-67.614
291.00	-66.051
291.36	-62.966
291.73	-70.220
292.09	-62.901
292.46	-64.489
292.82	-58.023
293.19	-61.279
293.56	-74.822
293.92	-67.110
294.29	-71.340
294.65	-72.368
295.02	-65.225
295.38	-64.645
295.75	-66.890
296.11	-65.787
296.48	-70.430
296.84	-63.675
297.21	-55.024
297.57	-53.165
297.94	-66.522
298.30	-64.641
298.67	-62.532
299.04	-59.455
299.40	-62.336
299.77	-63.227
300.13	-60.278
300.50	-61.208
300.86	-60.163
301.23	-53.286
301.59	-62.010
301.96	-62.670
302.32	-67.608
302.69	-58.714
303.05	-61.860
303.42	-62.590
303.78	-56.269
304.14	-61.465
304.51	-54.283
304.87	-54.110
305.24	-57.839
305.60	-55.547
305.97	-56.163
306.33	-50.411
306.70	-53.248
307.06	-55.383
307.43	-46.429
307.79	-51.857
308.16	-58.003
308.52	-62.331
308.88	-56.433
309.25	-57.273
309.61	-60.522
309.98	-67.973
310.34	-53.823
310.71	-57.768
311.07	-57.154
311.44	-56.612
311.80	-54.880
312.16	-54.902
312.53	-52.786
312.89	-50.937
313.26	-55.828
313.62	-55.095
313.98	-40.968
314.35	-46.690
314.71	-52.958
315.08	-49.931
315.44	-50.243
315.80	-48.077
316.17	-54.306
316.53	-47.694
316.90	-51.404
317.26	-49.387
317.62	-45.639
317.99	-54.911
318.35	-50.167
318.72	-46.982
319.08	-48.013
319.44	-55.385
319.81	-42.637
320.17	-47.941
320.53	-45.591
320.90	-43.459
321.26	-46.102
321.62	-41.812
321.99	-45.216
322.35	-43.784
322.72	-42.238
323.08	-45.149
323.44	-43.629
323.81	-38.999
324.17	-47.250
324.53	-41.275
324.90	-38.334
325.26	-41.860
325.62	-44.279
325.99	-43.279
326.35	-43.607
326.71	-42.308
327.08	-39.578
327.44	-34.856
327.80	-35.327
328.16	-37.129
328.53	-46.429
328.89	-39.148
329.25	-40.433
329.62	-26.030
329.98	-31.441
330.34	-33.426
330.71	-33.286
331.07	-31.232
331.43	-29.638
331.79	-26.619
332.16	-28.720
332.52	-30.146
332.88	-31.627
333.24	-31.665
333.61	-29.588
333.97	-28.696
334.33	-26.408
334.70	-30.582
335.06	-29.115
335.42	-30.563
335.78	-28.555
336.15	-27.883
336.51	-28.827
336.87	-25.067
337.23	-24.656
337.60	-25.118
337.96	-26.843
338.32	-24.848
338.68	-22.846
339.04	-23.655
339.41	-23.562
339.77	-22.690
340.13	-26.014
340.49	-22.057
340.86	-22.507
341.22	-21.392
341.58	-23.223
341.94	-21.000
342.30	-23.257
342.67	-21.280
343.03	-20.384
343.39	-20.466
343.75	-21.143
344.11	-19.243
344.48	-19.320
344.84	-19.700
345.20	-20.039
345.56	-19.978
345.92	-18.767
346.28	-19.788
346.65	-16.265
347.01	-20.157
347.37	-15.325
347.73	-17.545
348.09	-15.696
348.45	-17.418
348.82	-15.464
349.18	-16.205
349.54	-15.695
349.90	-15.702
350.26	-16.261
350.62	-13.896
350.98	-15.207
351.35	-14.758
351.71	-14.645
352.07	-13.643
352.43	-14.821
352.79	-14.774
353.15	-14.044
353.51	-13.193
353.87	-13.101
354.24	-14.145
354.60	-12.559
354.96	-13.229
355.32	-11.925
355.68	-12.303
356.04	-11.519
356.40	-11.065
356.76	-11.969
357.12	-11.153
357.48	-10.614
357.85	-12.388
358.21	-11.869
358.57	-11.658
358.93	-11.844
359.29	-11.501
359.65	-9.952
360.01	-10.247
360.37	-10.540
360.73	-10.766
361.09	-9.069
361.45	-9.171
361.81	-8.910
362.17	-9.197
362.53	-8.204
362.89	-8.235
363.25	-8.319
363.62	-9.200
363.98	-8.813
364.34	-8.732
364.70	-8.186
365.06	-9.033
365.42	-8.862
365.78	-7.889
366.14	-8.315
366.50	-8.897
366.86	-8.061
367.22	-7.540
367.58	-8.785
367.94	-7.220
368.30	-7.750
368.66	-7.344
369.02	-7.329
369.38	-8.134
369.74	-6.678
370.10	-6.825
370.46	-6.720
370.82	-6.547
371.18	-6.749
371.54	-5.964
371.90	-5.802
372.26	-5.493
372.62	-5.514
372.98	-5.653
373.33	-6.223
373.69	-6.652
374.05	-5.061
374.41	-5.898
374.77	-5.202
375.13	-5.701
375.49	-5.458
375.85	-5.527
376.21	-5.354
376.57	-4.901
376.93	-5.094
377.29	-4.425
377.65	-4.500
378.01	-4.036
378.37	-4.061
378.73	-4.039
379.08	-4.308
379.44	-4.208
379.80	-4.116
380.16	-4.331
380.52	-3.707
380.88	-4.119
381.24	-3.687
381.60	-2.867
381.96	-3.147
382.32	-3.510
382.67	-3.043
383.03	-2.762
383.39	-3.233
383.75	-2.594
384.11	-2.709
384.47	-2.651
384.83	-2.260
385.19	-2.234
385.54	-2.407
385.90	-2.040
386.26	-1.673
386.62	-1.796
386.98	-1.620
387.34	-1.833
387.70	-1.399
388.05	-1.597
388.41	-0.944
388.77	-0.691
389.13	-0.634
389.49	-0.574
389.85	-1.029
390.20	-1.147
390.56	-0.372
390.92	-0.455
391.28	-0.541
391.64	0.183
391.99	0.068
392.35	-0.006
392.71	0.579
393.07	0.094
393.43	0.178
393.78	0.860
394.14	0.854
394.50	1.332
394.86	0.971
395.22	1.025
395.57	1.351
395.93	1.473
396.29	1.892
396.65	2.023
397.00	1.685
397.36	1.674
397.72	1.913
398.08	2.189
398.43	2.420
398.79	2.525
399.15	2.471
399.51	2.443
399.86	2.630
400.22	3.094
400.58	2.918
400.94	3.345
401.29	3.286
401.65	3.289
402.01	3.476
402.37	3.650
402.72	3.801
403.08	4.052
403.44	4.234
403.79	4.346
404.15	4.333
404.51	4.646
404.86	4.746
405.22	4.960
405.58	4.874
405.94	4.922
406.29	5.263
406.65	5.360
407.01	5.435
407.36	5.686
407.72	5.621
408.08	5.698
408.43	5.923
408.79	5.974
409.15	6.071
409.50	6.289
409.86	6.212
410.22	6.353
410.57	6.558
410.93	6.737
411.29	6.947
411.64	6.833
412.00	7.202
412.35	7.219
412.71	7.441
413.07	7.395
413.42	7.298
413.78	7.524
414.14	7.689
414.49	7.853
414.85	8.034
415.20	8.251
415.56	8.392
415.92	8.438
416.27	8.613
416.63	8.567
416.98	8.946
417.34	8.757
417.70	9.109
418.05	9.119
418.41	9.249
418.76	9.199
419.12	9.472
419.47	9.565
419.83	9.623
420.19	9.945
420.54	10.197
420.90	10.046
421.25	10.040
421.61	10.047
421.96	10.290
422.32	10.550
422.67	10.511
423.03	10.799
423.39	10.518
423.74	11.106
424.10	10.906
424.45	10.992
424.81	11.154
425.16	11.198
425.52	11.575
425.87	11.574
426.23	11.654
426.58	11.703
426.94	11.830
427.29	12.029
427.65	11.977
428.00	12.181
428.36	12.352
428.71	12.251
429.07	12.485
429.42	12.546
429.78	12.751
430.13	12.721
430.49	12.582
430.84	13.041
431.19	12.938
431.55	13.096
431.90	13.388
432.26	13.424
432.61	13.461
432.97	13.569
433.32	13.778
433.68	13.653
434.03	13.902
434.39	13.992
434.74	14.112
435.09	14.183
435.45	14.399
435.80	14.377
436.16	14.532
436.51	14.495
436.86	14.548
437.22	14.812
437.57	14.744
437.93	14.876
438.28	14.838
438.63	14.979
438.99	15.213
439.34	15.130
439.70	15.377
440.05	15.258
440.40	15.471
440.76	15.561
441.11	15.585
441.47	15.854
441.82	15.857
442.17	15.953
442.53	16.074
442.88	16.225
443.23	16.272
443.59	16.312
443.94	16.310
444.29	16.402
444.65	16.500
445.00	16.669
445.35	16.687
445.71	16.816
446.06	16.986
446.41	16.887
446.77	16.823
447.12	17.180
447.47	17.200
447.83	17.210
448.18	17.366
448.53	17.465
448.89	17.523
449.24	17.603
449.59	17.569
449.94	17.631
450.30	17.720
450.65	18.033
451.00	17.910
451.36	18.131
451.71	18.230
452.06	18.088
452.41	18.392
452.77	18.435
453.12	18.476
453.47	18.645
453.82	18.788
454.18	18.871
454.53	18.777
454.88	18.930
455.23	18.954
455.59	19.011
455.94	19.026
456.29	19.354
456.64	19.235
457.00	19.420
457.35	19.425
457.70	19.530
458.05	19.594
458.40	19.744
458.76	19.858
459.11	19.878
459.46	20.124
459.81	19.989
460.16	20.122
460.52	20.285
460.87	20.387
461.22	20.286
461.57	20.347
461.92	20.529
462.28	20.570
462.63	20.693
462.98	20.658
463.33	20.714
463.68	20.976
464.03	20.887
464.38	21.086
464.74	21.049
465.09	21.217
465.44	21.252
465.79	21.278
466.14	21.314
466.49	21.358
466.84	21.442
467.20	21.612
467.55	21.607
467.90	21.668
468.25	21.526
468.60	21.759
468.95	21.879
469.30	21.946
469.65	22.022
470.00	22.072
470.36	22.181
470.71	22.169
471.06	22.146
471.41	22.339
471.76	22.255
472.11	22.363
472.46	22.447
472.81	22.430
473.16	22.566
473.51	22.520
473.86	22.466
474.21	22.578
474.56	22.704
474.91	22.631
475.26	22.672
475.62	22.600
475.97	22.723
476.32	22.744
476.67	22.690
477.02	22.755
477.37	22.787
477.72	22.803
478.07	22.773
478.42	22.790
478.77	22.884
479.12	22.868
479.47	22.807
479.82	22.896
480.17	22.890
480.52	22.850
480.87	22.891
481.22	22.853
481.57	22.899
481.92	22.962
482.27	22.946
482.62	22.909
482.97	22.949
483.32	22.994
483.67	22.927
484.02	23.050
484.36	22.967
484.71	23.042
485.06	23.016
485.41	23.048
485.76	23.082
486.11	23.126
486.46	23.124
486.81	23.163
487.16	23.119
487.51	23.212
487.86	23.258
488.21	23.326
488.56	23.405
488.91	23.405
489.25	23.453
489.60	23.619
489.95	23.549
490.30	23.681
490.65	23.807
491.00	23.736
491.35	23.879
491.70	23.918
492.05	23.956
492.39	24.052
492.74	24.078
493.09	24.156
493.44	24.233
493.79	24.258
494.14	24.407
494.49	24.407
494.83	24.470
495.18	24.511
495.53	24.672
495.88	24.753
496.23	24.815
496.58	24.866
496.92	24.944
497.27	25.034
497.62	25.036
497.97	25.145
498.32	25.259
498.67	25.303
499.01	25.386
499.36	25.367
499.71	25.468
500.06	25.523
500.41	25.515
500.75	25.644
501.10	25.714
501.45	25.675
501.80	25.751
502.14	25.835
502.49	25.916
502.84	25.956
503.19	26.066
503.53	26.079
503.88	26.094
504.23	26.122
504.58	26.182
504.92	26.219
505.27	26.295
505.62	26.343
505.97	26.338
506.31	26.369
506.66	26.413
507.01	26.431
507.36	26.442
507.70	26.404
508.05	26.407
508.40	26.435
508.74	26.413
509.09	26.407
509.44	26.406
509.79	26.391
510.13	26.357
510.48	26.388
510.83	26.311
511.17	26.361
511.52	26.357
511.87	26.313
512.21	26.323
512.56	26.370
512.91	26.315
513.25	26.366
513.60	26.363
513.95	26.455
514.29	26.455
514.64	26.504
514.98	26.503
515.33	26.527
515.68	26.657
516.02	26.622
516.37	26.686
516.72	26.737
517.06	26.789
517.41	26.762
517.75	26.889
518.10	26.877
518.45	26.814
518.79	26.866
519.14	26.955
519.48	26.954
519.83	27.034
520.18	26.987
520.52	27.056
520.87	26.996
521.21	27.139
521.56	27.099
521.90	27.081
522.25	27.139
522.60	27.058
522.94	27.125
523.29	27.102
523.63	27.111
523.98	27.102
524.32	27.066
524.67	27.092
525.01	27.038
525.36	27.017
525.70	26.971
526.05	27.041
526.39	26.934
526.74	26.914
527.08	26.810
527.43	26.816
527.77	26.794
528.12	26.699
528.46	26.693
528.81	26.555
529.15	26.528
529.50	26.473
529.84	26.407
530.19	26.322
530.53	26.194
530.88	26.129
531.22	26.080
531.57	25.969
531.91	25.794
532.26	25.713
532.60	25.602
532.94	25.474
533.29	25.359
533.63	25.182
533.98	25.074
534.32	24.918
534.67	24.762
535.01	24.555
535.35	24.413
535.70	24.230
536.04	24.080
536.39	23.913
536.73	23.712
537.07	23.505
537.42	23.283
537.76	23.152
538.11	22.947
538.45	22.741
538.79	22.620
539.14	22.417
539.48	22.245
539.82	21.996
540.17	21.815
540.51	21.726
540.85	21.597
541.20	21.389
541.54	21.250
541.89	21.151
542.23	21.036
542.57	20.906
542.92	20.844
543.26	20.738
543.60	20.615
543.94	20.610
544.29	20.591
544.63	20.458
544.97	20.419
545.32	20.451
545.66	20.423
546.00	20.358
546.35	20.384
546.69	20.399
547.03	20.384
547.37	20.352
547.72	20.367
548.06	20.465
548.40	20.475
548.75	20.581
549.09	20.588
549.43	20.623
549.77	20.687
550.12	20.768
550.46	20.874
550.80	20.938
551.14	21.044
551.49	21.097
551.83	21.248
552.17	21.373
552.51	21.468
552.85	21.617
553.20	21.754
553.54	21.882
553.88	22.117
554.22	22.238
554.56	22.438
554.91	22.661
555.25	22.831
555.59	22.996
555.93	23.174
556.27	23.417
556.62	23.674
556.96	23.894
557.30	24.048
557.64	24.296
557.98	24.524
558.32	24.702
558.67	24.945
559.01	25.203
559.35	25.391
559.69	25.606
560.03	25.795
560.37	26.040
560.71	26.293
561.05	26.448
561.40	26.646
561.74	26.845
562.08	27.037
562.42	27.225
562.76	27.418
563.10	27.589
563.44	27.767
563.78	27.899
564.12	28.148
564.46	28.290
564.81	28.359
565.15	28.502
565.49	28.602
565.83	28.712
566.17	28.806
566.51	28.889
566.85	29.038
567.19	29.084
567.53	29.142
567.87	29.232
568.21	29.318
568.55	29.301
568.89	29.349
569.23	29.375
569.57	29.410
569.91	29.396
570.25	29.406
570.59	29.442
570.93	29.427
571.27	29.392
571.61	29.359
571.95	29.400
572.29	29.332
572.63	29.241
572.97	29.236
573.31	29.136
573.65	29.044
573.99	28.982
574.33	28.879
574.67	28.826
575.01	28.758
575.35	28.642
575.69	28.532
576.03	28.517
576.37	28.347
576.71	28.201
577.05	28.081
577.39	28.028
577.73	27.878
578.06	27.704
578.40	27.591
578.74	27.497
579.08	27.215
579.42	27.074
579.76	26.953
580.10	26.790
580.44	26.644
580.78	26.408
581.12	26.262
581.45	26.083
581.79	25.873
582.13	25.733
582.47	25.612
582.81	25.430
583.15	25.211
583.49	25.088
583.83	24.935
584.16	24.792
584.50	24.666
584.84	24.597
585.18	24.439
585.52	24.267
585.86	24.150
586.19	23.974
586.53	23.903
586.87	23.766
587.21	23.579
587.55	23.415
587.88	23.348
588.22	23.199
588.56	23.027
588.90	22.807
589.24	22.670
589.57	22.474
589.91	22.369
590.25	22.166
590.59	21.959
590.92	21.797
591.26	21.562
591.60	21.366
591.94	21.095
592.27	20.918
592.61	20.678
592.95	20.459
593.29	20.229
593.62	19.938
593.96	19.690
594.30	19.441
594.64	19.152
594.97	18.849
595.31	18.523
595.65	18.161
595.98	17.830
596.32	17.463
596.66	17.140
597.00	16.756
597.33	16.325
597.67	15.933
598.01	15.508
598.34	15.133
598.68	14.743
599.02	14.327
599.35	13.938
599.69	13.590
600.03	13.241
600.36	12.897
600.70	12.595
601.03	12.291
601.37	12.031
601.71	11.768
602.04	11.451
602.38	11.210
602.72	11.002
603.05	10.744
603.39	10.544
603.72	10.311
604.06	10.068
604.40	9.831
604.73	9.598
605.07	9.340
605.40	9.086
605.74	8.852
606.08	8.611
606.41	8.354
606.75	8.118
607.08	7.897
607.42	7.623
607.75	7.358
608.09	7.128
608.42	6.876
608.76	6.619
609.10	6.404
609.43	6.146
609.77	5.942
610.10	5.685
610.44	5.446
610.77	5.240
611.11	5.014
611.44	4.787
611.78	4.578
612.11	4.367
612.45	4.163
612.78	3.962
613.12	3.773
613.45	3.600
613.79	3.408
614.12	3.251
614.46	3.057
614.79	2.930
615.13	2.763
615.46	2.654
615.79	2.505
616.13	2.365
616.46	2.257
616.80	2.172
617.13	2.093
617.47	1.977
617.80	1.912
618.13	1.845
618.47	1.765
618.80	1.703
619.14	1.643
619.47	1.557
619.81	1.512
620.14	1.433
620.47	1.413
620.81	1.337
621.14	1.287
621.47	1.251
621.81	1.192
622.14	1.155
622.48	1.121
622.81	1.095
623.14	1.053
623.48	1.036
623.81	0.995
624.14	0.971
624.48	0.946
624.81	0.942
625.14	0.922
625.48	0.903
625.81	0.902
626.14	0.866
626.48	0.884
626.81	0.884
627.14	0.882
627.48	0.879
627.81	0.894
628.14	0.885
628.47	0.922
628.81	0.920
629.14	0.959
629.47	0.956
629.81	1.021
630.14	1.035
630.47	1.064
630.80	1.106
631.14	1.156
631.47	1.229
631.80	1.282
632.13	1.352
632.47	1.406
632.80	1.498
633.13	1.618
633.46	1.700
633.79	1.802
634.13	1.927
634.46	2.030
634.79	2.164
635.12	2.290
635.45	2.423
635.79	2.584
636.12	2.726
636.45	2.891
636.78	3.071
637.11	3.258
637.45	3.447
637.78	3.623
638.11	3.829
638.44	4.049
638.77	4.241
639.10	4.475
639.44	4.657
639.77	4.929
640.10	5.165
640.43	5.388
640.76	5.608
641.09	5.854
641.42	6.077
641.75	6.356
642.08	6.574
642.42	6.808
642.75	7.023
643.08	7.295
643.41	7.517
643.74	7.741
644.07	7.990
644.40	8.205
644.73	8.402
645.06	8.624
645.39	8.870
645.72	9.053
646.05	9.295
646.38	9.467
646.72	9.651
647.05	9.864
647.38	10.051
647.71	10.161
648.04	10.324
648.37	10.499
648.70	10.611
649.03	10.733
649.36	10.812
649.69	10.911
650.02	11.034
650.35	11.084
650.68	11.163
651.01	11.155
651.34	11.189
651.67	11.136
652.00	11.128
652.33	11.095
652.66	11.034
652.99	10.976
653.31	10.828
653.64	10.722
653.97	10.559
654.30	10.413
654.63	10.218
654.96	9.985
655.29	9.791
655.62	9.565
655.95	9.345
656.28	9.088
656.61	8.840
656.94	8.583
657.27	8.344
657.60	8.063
657.92	7.884
658.25	7.582
658.58	7.360
658.91	7.162
659.24	6.964
659.57	6.755
659.90	6.535
660.23	6.407
660.55	6.207
660.88	6.032
661.21	5.860
661.54	5.676
661.87	5.533
662.20	5.391
662.52	5.218
662.85	5.075
663.18	4.950
663.51	4.794
663.84	4.667
664.16	4.501
664.49	4.393
664.82	4.266
665.15	4.139
665.48	4.040
665.80	3.926
666.13	3.837
666.46	3.686
666.79	3.612
667.12	3.489
667.44	3.438
667.77	3.313
668.10	3.250
668.43	3.196
668.75	3.107
669.08	3.013
669.41	2.963
669.73	2.889
670.06	2.840
670.39	2.772
670.72	2.718
671.04	2.674
671.37	2.637
671.70	2.569
672.02	2.534
672.35	2.480
672.68	2.463
673.00	2.429
673.33	2.388
673.66	2.374
673.98	2.343
674.31	2.287
674.64	2.292
674.96	2.258
675.29	2.234
675.62	2.242
675.94	2.207
676.27	2.193
676.60	2.187
676.92	2.172
677.25	2.162
677.58	2.148
677.90	2.137
678.23	2.142
678.55	2.123
678.88	2.115
679.21	2.110
679.53	2.095
679.86	2.083
680.18	2.038
680.51	2.033
680.83	2.033
681.16	2.004
681.49	1.978
681.81	1.964
682.14	1.949
682.46	1.922
682.79	1.922
683.11	1.912
683.44	1.868
683.76	1.878
684.09	1.815
684.41	1.870
684.74	1.854
685.06	1.821
685.39	1.804
685.71	1.801
686.04	1.766
686.36	1.751
686.69	1.718
687.01	1.739
687.34	1.694
687.66	1.693
687.99	1.686
688.31	1.659
688.64	1.644
688.96	1.613
689.29	1.616
689.61	1.565
689.93	1.557
690.26	1.509
690.58	1.501
690.91	1.455
691.23	1.420
691.56	1.412
691.88	1.399
692.20	1.303
692.53	1.280
692.85	1.262
693.18	1.200
693.50	1.194
693.82	1.136
694.15	1.061
694.47	1.032
694.79	0.947
695.12	0.928
695.44	0.862
695.76	0.808
696.09	0.776
696.41	0.696
696.73	0.671
697.06	0.638
697.38	0.555
697.70	0.512
698.03	0.451
698.35	0.402
698.67	0.358
699.00	0.319
699.32	0.310
699.64	0.264
699.97	0.186
700.29	0.130
700.61	0.128
700.93	0.072
701.26	0.058
701.58	0.016
701.90	0.019
702.22	-0.030
702.55	-0.106
702.87	-0.104
703.19	-0.069
703.51	-0.116
703.84	-0.114
704.16	-0.147
704.48	-0.168
704.80	-0.177
705.13	-0.193
705.45	-0.200
705.77	-0.224
706.09	-0.219
706.41	-0.271
706.74	-0.235
707.06	-0.247
707.38	-0.229
707.70	-0.263
708.02	-0.307
708.34	-0.277
708.67	-0.299
708.99	-0.328
709.31	-0.272
709.63	-0.328
709.95	-0.339
710.27	-0.318
710.59	-0.314
710.92	-0.294
711.24	-0.313
711.56	-0.371
711.88	-0.368
712.20	-0.355
712.52	-0.330
712.84	-0.375
713.16	-0.372
713.48	-0.403
713.80	-0.352
714.12	-0.376
714.45	-0.370
714.77	-0.384
715.09	-0.381
715.41	-0.375
715.73	-0.422
716.05	-0.435
716.37	-0.402
716.69	-0.427
717.01	-0.456
717.33	-0.410
717.65	-0.423
717.97	-0.466
718.29	-0.476
718.61	-0.479
718.93	-0.481
719.25	-0.439
719.57	-0.470
719.89	-0.477
720.21	-0.516
720.53	-0.436
720.85	-0.485
721.17	-0.518
721.49	-0.523
721.81	-0.565
722.13	-0.519
722.45	-0.578
722.77	-0.600
723.09	-0.538
723.41	-0.570
723.72	-0.590
724.04	-0.635
724.36	-0.663
724.68	-0.617
725.00	-0.710
725.32	-0.665
725.64	-0.675
725.96	-0.754
726.28	-0.742
726.60	-0.688
726.91	-0.771
727.23	-0.708
727.55	-0.725
727.87	-0.691
728.19	-0.804
728.51	-0.758
728.83	-0.807
729.14	-0.737
729.46	-0.759
729.78	-0.789
730.10	-0.872
730.42	-0.884
730.74	-0.860
731.05	-0.798
731.37	-0.884
731.69	-0.899
732.01	-0.955
732.33	-0.860
732.64	-0.849
732.96	-0.843
733.28	-0.885
733.60	-0.934
733.92	-0.916
734.23	-0.924
734.55	-0.894
734.87	-0.905
735.19	-0.972
735.50	-0.820
735.82	-0.948
736.14	-0.831
736.45	-0.911
736.77	-0.890
737.09	-0.916
737.41	-0.914
737.72	-0.950
738.04	-0.915
738.36	-0.982
738.67	-1.039
738.99	-0.956
739.31	-0.986
739.63	-0.905
739.94	-0.871
740.26	-0.898
740.58	-0.887
740.89	-0.901
741.21	-0.886
741.52	-0.867
741.84	-0.842
742.16	-0.955
742.47	-0.829
742.79	-0.892
743.11	-0.788
743.42	-0.866
743.74	-0.724
744.05	-0.836
744.37	-0.857
744.69	-0.859
745.00	-0.824
745.32	-0.758
745.63	-0.844
745.95	-0.846
746.27	-0.864
746.58	-0.835
746.90	-0.813
747.21	-0.823
747.53	-0.836
747.84	-0.710
748.16	-0.771
748.47	-0.792
748.79	-0.755
749.10	-0.789
749.42	-0.751
749.74	-0.763
750.05	-0.734
750.37	-0.807
750.68	-0.768
751.00	-0.722
751.31	-0.692
751.62	-0.708
751.94	-0.727
752.25	-0.771
752.57	-0.701
752.88	-0.764
753.20	-0.738
753.51	-0.683
753.83	-0.652
754.14	-0.726
754.46	-0.647
754.77	-0.687
755.08	-0.733
755.40	-0.681
755.71	-0.625
756.03	-0.683
756.34	-0.687
756.66	-0.672
756.97	-0.601
757.28	-0.691
757.60	-0.703
757.91	-0.647
758.22	-0.638
758.54	-0.660
758.85	-0.619
759.17	-0.604
759.48	-0.644
759.79	-0.613
760.11	-0.674
760.42	-0.598
760.73	-0.653
761.05	-0.638
761.36	-0.652
761.67	-0.628
761.99	-0.620
762.30	-0.616
762.61	-0.656
762.92	-0.642
763.24	-0.609
763.55	-0.584
763.86	-0.632
764.18	-0.576
764.49	-0.622
764.80	-0.611
765.11	-0.586
765.43	-0.610
765.74	-0.612
766.05	-0.623
766.36	-0.594
766.68	-0.579
766.99	-0.562
767.30	-0.631
767.61	-0.677
767.93	-0.688
768.24	-0.571
768.55	-0.603
768.86	-0.608
769.17	-0.627
769.49	-0.583
769.80	-0.639
770.11	-0.565
770.42	-0.578
770.73	-0.641
771.04	-0.604
771.36	-0.563
771.67	-0.622
771.98	-0.597
772.29	-0.603
772.60	-0.602
772.91	-0.623
773.22	-0.558
773.54	-0.678
773.85	-0.547
774.16	-0.601
774.47	-0.666
774.78	-0.651
775.09	-0.675
775.40	-0.670
775.71	-0.685
776.02	-0.636
776.33	-0.672
776.64	-0.655
776.96	-0.669
777.27	-0.640
777.58	-0.638
777.89	-0.658
778.20	-0.665
778.51	-0.662
778.82	-0.616
779.13	-0.646
779.44	-0.686
779.75	-0.713
780.06	-0.742
780.37	-0.718
780.68	-0.695
780.99	-0.711
781.30	-0.704
781.61	-0.691
781.92	-0.740
782.23	-0.685
782.54	-0.749
782.85	-0.748
783.16	-0.773
783.47	-0.741
783.78	-0.714
784.08	-0.755
784.39	-0.773
784.70	-0.739
785.01	-0.764
785.32	-0.765
785.63	-0.772
785.94	-0.767
786.25	-0.858
786.56	-0.844
786.87	-0.823
787.18	-0.878
787.48	-0.813
787.79	-0.924
788.10	-0.865
788.41	-0.889
788.72	-0.845
789.03	-0.937
789.34	-0.939
789.64	-0.905
789.95	-0.907
790.26	-0.852
790.57	-1.010
790.88	-0.922
791.19	-1.012
791.49	-0.958
791.80	-0.908
792.11	-0.956
792.42	-0.973
792.73	-1.042
793.03	-0.945
793.34	-0.991
793.65	-1.052
793.96	-1.011
794.27	-1.010
794.57	-1.041
794.88	-1.063
795.19	-1.057
795.50	-1.063
795.80	-1.233
796.11	-1.138
796.42	-1.159
796.72	-1.071
797.03	-1.161
797.34	-1.052
797.65	-1.228
797.95	-1.155
798.26	-1.122
798.57	-1.211
798.87	-1.182
799.18	-1.280
799.49	-1.290
799.79	-1.317
800.10	-1.298
800.41	-1.288
800.71	-1.299
801.02	-1.460
801.33	-1.333
801.63	-1.319
801.94	-1.392
802.24	-1.464
802.55	-1.464
802.86	-1.427
803.16	-1.456
803.47	-1.535
803.77	-1.384
804.08	-1.503
804.39	-1.518
804.69	-1.431
805.00	-1.450
805.30	-1.355
805.61	-1.537
805.91	-1.607
806.22	-1.464
806.53	-1.519
806.83	-1.579
807.14	-1.494
807.44	-1.761
807.75	-1.583
808.05	-1.650
808.36	-1.555
808.66	-1.735
808.97	-1.750
809.27	-1.798
809.58	-1.789
809.88	-1.818
810.19	-1.655
810.49	-1.745
810.80	-1.826
811.10	-1.697
811.41	-1.765
811.71	-1.934
812.01	-1.898
812.32	-1.963
812.62	-1.923
812.93	-2.007
813.23	-1.794
813.54	-1.928
813.84	-1.990
814.14	-2.166
814.45	-2.280
814.75	-2.202
815.06	-2.229
815.36	-2.155
815.66	-2.178
815.97	-2.427
816.27	-2.285
816.58	-2.330
816.88	-2.481
817.18	-2.274
817.49	-2.398
817.79	-2.447
818.09	-2.302
818.40	-2.627
818.70	-2.624
819.00	-2.563
819.31	-2.284
819.61	-2.488
819.91	-2.621
820.21	-2.512
820.52	-2.773
820.82	-2.872
821.12	-2.787
821.43	-2.884
821.73	-3.015
822.03	-3.029
822.33	-3.101
822.64	-2.881
822.94	-3.104
823.24	-2.944
823.54	-3.195
823.85	-3.214
824.15	-3.172
824.45	-3.232
824.75	-3.115
825.05	-3.566
825.36	-3.230
825.66	-3.500
825.96	-3.603
826.26	-3.746
826.56	-3.742
826.87	-3.677
827.17	-3.700
827.47	-3.646
827.77	-3.836
828.07	-4.064
828.37	-3.908
828.67	-4.196
828.98	-4.278
829.28	-4.091
829.58	-4.465
829.88	-4.359
830.18	-4.812
830.48	-4.817
830.78	-4.460
831.08	-4.317
831.38	-4.844
831.69	-4.886
831.99	-4.809
832.29	-5.580
832.59	-5.498
832.89	-5.293
833.19	-4.984
833.49	-5.545
833.79	-5.540
834.09	-5.444
834.39	-5.589
834.69	-5.905
834.99	-6.216
835.29	-6.506
835.59	-6.179
835.89	-6.667
836.19	-6.915
836.49	-6.402
836.79	-7.102
837.09	-7.009
837.39	-6.384
837.69	-7.339
837.99	-7.602
838.29	-8.140
838.59	-7.994
838.89	-8.771
839.19	-8.137
839.49	-7.853
839.79	-8.699
840.09	-8.324
840.39	-9.298
840.68	-8.771
840.98	-9.833
841.28	-9.679
841.58	-9.826
841.88	-10.686
842.18	-9.433
842.48	-10.270
842.78	-10.593
843.08	-10.775
843.37	-10.927
843.67	-11.542
843.97	-11.234
844.27	-11.766
844.57	-11.934
844.87	-12.918
845.16	-12.440
845.46	-13.025
845.76	-13.195
846.06	-13.457
846.36	-14.788
846.66	-13.988
846.95	-14.473
847.25	-14.407
847.55	-17.686
847.85	-15.264
848.14	-17.495
848.44	-15.303
848.74	-17.861
849.04	-17.740
849.33	-19.948
849.63	-19.149
849.93	-18.065
850.23	-19.926
850.52	-19.861
850.82	-19.594
851.12	-23.472
851.42	-20.444
851.71	-21.006
852.01	-24.559
852.31	-22.994
852.60	-21.840
852.90	-23.752
853.20	-23.854
853.49	-24.235
853.79	-23.926
854.09	-25.327
854.38	-27.476
854.68	-27.532
854.98	-26.738
855.27	-26.754
855.57	-30.749
855.86	-26.012
856.16	-26.686
856.46	-27.723
856.75	-30.503
857.05	-32.735
857.34	-27.721
857.64	-30.565
857.94	-27.282
858.23	-31.390
858.53	-29.432
858.82	-30.630
859.12	-29.180
859.41	-29.890
859.71	-32.162
860.01	-33.517
860.30	-29.054
860.60	-33.446
860.89	-33.605
861.19	-31.803
861.48	-31.310
861.78	-29.791
862.07	-29.545
862.37	-33.210
862.66	-33.468
862.96	-33.903
863.25	-33.271
863.55	-32.117
863.84	-31.292
864.13	-32.177
864.43	-29.463
864.72	-31.662
865.02	-27.450
865.31	-34.942
865.61	-31.947
865.90	-30.222
866.19	-29.472
866.49	-33.735
866.78	-31.466
867.08	-34.663
867.37	-31.483
867.66	-30.938
867.96	-30.436
868.25	-33.396
868.55	-32.248
868.84	-32.481
869.13	-33.448
869.43	-32.003
869.72	-34.071
870.01	-36.402
870.31	-32.182
870.60	-33.435
870.89	-34.522
871.19	-32.710
871.48	-32.423
871.77	-32.614
872.07	-32.487
872.36	-35.086
872.65	-32.251
872.94	-33.704
873.24	-31.508
873.53	-36.459
873.82	-31.579
874.11	-34.238
874.41	-31.761
874.70	-34.392
>>>>>End Processed Spectral Data<<<<<
