SpectraSuite Data File
++++++++++++++++++++++++++++++++++++
Date: Thu Apr 16 19:59:30 BST 2015
User: mpfc3
Dark Spectrum Present: Yes
Reference Spectrum Present: Yes
Number of Sampled Component Spectra: 1
Spectrometers: USB2E3636
Integration Time (usec): 30000 (USB2E3636)
Spectra Averaged: 100 (USB2E3636)
Boxcar Smoothing: 0 (USB2E3636)
Correct for Electrical Dark: No (USB2E3636)
Strobe/Lamp Enabled: No (USB2E3636)
Correct for Detector Non-linearity: No (USB2E3636)
Correct for Stray Light: No (USB2E3636)
Number of Pixels in Processed Spectrum: 2048
>>>>>Begin Processed Spectral Data<<<<<
180.28	0.000
180.65	338.528
181.02	379.913
181.39	335.366
181.77	343.096
182.14	347.347
182.51	333.465
182.88	281.455
183.25	364.912
183.63	328.333
184.00	340.164
184.37	406.931
184.74	312.451
185.11	324.797
185.49	289.583
185.86	393.878
186.23	350.562
186.60	417.347
186.97	282.934
187.35	348.178
187.72	343.404
188.09	327.801
188.46	282.918
188.83	341.870
189.20	-248.734
189.58	-38.780
189.95	-37.906
190.32	-38.227
190.69	-31.170
191.06	-35.649
191.43	-35.239
191.81	-34.425
192.18	-33.761
192.55	-35.892
192.92	-38.861
193.29	-35.354
193.66	-31.383
194.03	-33.632
194.41	-37.418
194.78	-35.294
195.15	-34.337
195.52	-33.847
195.89	-30.392
196.26	-38.159
196.63	-35.626
197.01	-34.522
197.38	-35.882
197.75	-32.870
198.12	-38.292
198.49	-36.564
198.86	-39.022
199.23	-36.176
199.60	-36.413
199.98	-34.188
200.35	-38.175
200.72	-37.599
201.09	-38.560
201.46	-35.501
201.83	-40.043
202.20	-35.297
202.57	-35.552
202.94	-37.528
203.31	-35.702
203.69	-33.190
204.06	-40.168
204.43	-35.549
204.80	-38.340
205.17	-37.850
205.54	-34.297
205.91	-35.368
206.28	-40.331
206.65	-36.617
207.02	-31.219
207.39	-39.036
207.76	-34.898
208.14	-36.667
208.51	-37.966
208.88	-39.387
209.25	-31.544
209.62	-36.587
209.99	-38.969
210.36	-37.625
210.73	-38.682
211.10	-39.007
211.47	-43.034
211.84	-34.513
212.21	-38.327
212.58	-40.793
212.95	-43.351
213.32	-38.283
213.69	-39.055
214.06	-39.941
214.43	-42.542
214.80	-42.064
215.17	-44.675
215.55	-35.012
215.92	-36.910
216.29	-40.083
216.66	-39.167
217.03	-39.151
217.40	-36.888
217.77	-44.041
218.14	-42.027
218.51	-43.250
218.88	-48.294
219.25	-40.670
219.62	-45.455
219.99	-41.985
220.36	-41.895
220.73	-42.619
221.10	-41.863
221.47	-43.031
221.84	-46.692
222.21	-41.891
222.58	-42.783
222.95	-45.278
223.32	-40.787
223.69	-43.691
224.06	-38.712
224.43	-42.246
224.80	-40.498
225.17	-44.740
225.54	-48.569
225.91	-48.570
226.27	-36.693
226.64	-44.904
227.01	-40.830
227.38	-41.116
227.75	-44.169
228.12	-46.215
228.49	-44.665
228.86	-54.533
229.23	-45.571
229.60	-39.787
229.97	-46.134
230.34	-43.630
230.71	-42.904
231.08	-44.672
231.45	-49.435
231.82	-45.198
232.19	-47.319
232.56	-42.269
232.93	-45.732
233.30	-44.132
233.66	-46.494
234.03	-42.819
234.40	-47.278
234.77	-44.823
235.14	-51.620
235.51	-55.165
235.88	-45.422
236.25	-51.176
236.62	-43.904
236.99	-55.605
237.36	-48.604
237.73	-48.705
238.09	-51.927
238.46	-46.024
238.83	-47.311
239.20	-50.765
239.57	-48.513
239.94	-46.542
240.31	-51.632
240.68	-52.232
241.05	-47.558
241.41	-54.387
241.78	-51.642
242.15	-49.142
242.52	-54.531
242.89	-53.984
243.26	-50.757
243.63	-57.198
244.00	-50.720
244.36	-47.961
244.73	-56.101
245.10	-54.336
245.47	-62.088
245.84	-55.844
246.21	-58.082
246.58	-53.875
246.94	-55.159
247.31	-50.269
247.68	-49.664
248.05	-57.211
248.42	-51.267
248.79	-52.964
249.15	-51.506
249.52	-57.394
249.89	-59.434
250.26	-51.849
250.63	-47.122
251.00	-51.478
251.36	-56.425
251.73	-53.528
252.10	-50.074
252.47	-58.113
252.84	-51.022
253.20	-52.289
253.57	-52.978
253.94	-59.147
254.31	-54.875
254.68	-52.776
255.05	-56.805
255.41	-52.744
255.78	-57.293
256.15	-53.036
256.52	-53.213
256.88	-53.804
257.25	-52.974
257.62	-56.947
257.99	-63.036
258.36	-47.277
258.72	-52.879
259.09	-51.082
259.46	-59.932
259.83	-47.198
260.19	-64.351
260.56	-51.036
260.93	-60.524
261.30	-52.644
261.67	-55.198
262.03	-52.423
262.40	-59.076
262.77	-59.242
263.14	-59.275
263.50	-55.070
263.87	-47.752
264.24	-54.015
264.61	-53.784
264.97	-49.322
265.34	-45.948
265.71	-56.177
266.07	-55.949
266.44	-53.344
266.81	-52.932
267.18	-54.259
267.54	-55.078
267.91	-61.233
268.28	-65.021
268.64	-60.154
269.01	-60.741
269.38	-59.002
269.75	-62.944
270.11	-57.525
270.48	-61.941
270.85	-54.523
271.21	-51.479
271.58	-58.683
271.95	-51.784
272.32	-60.098
272.68	-56.384
273.05	-62.036
273.42	-61.453
273.78	-55.556
274.15	-56.271
274.52	-62.803
274.88	-58.788
275.25	-59.723
275.62	-54.764
275.98	-51.645
276.35	-64.760
276.72	-58.392
277.08	-60.050
277.45	-58.635
277.82	-57.285
278.18	-50.405
278.55	-61.558
278.92	-60.672
279.28	-62.437
279.65	-68.744
280.01	-57.841
280.38	-54.802
280.75	-47.877
281.11	-56.291
281.48	-53.977
281.85	-59.898
282.21	-52.589
282.58	-59.714
282.95	-51.007
283.31	-53.020
283.68	-59.003
284.04	-66.154
284.41	-59.079
284.78	-62.935
285.14	-50.493
285.51	-59.676
285.87	-54.699
286.24	-56.964
286.61	-63.590
286.97	-55.890
287.34	-55.970
287.70	-55.993
288.07	-53.878
288.44	-57.248
288.80	-57.558
289.17	-55.645
289.53	-58.027
289.90	-58.698
290.26	-60.583
290.63	-62.360
291.00	-60.246
291.36	-56.421
291.73	-61.410
292.09	-59.781
292.46	-59.129
292.82	-50.567
293.19	-54.461
293.56	-66.281
293.92	-64.867
294.29	-59.700
294.65	-57.632
295.02	-61.408
295.38	-55.719
295.75	-59.430
296.11	-60.936
296.48	-66.846
296.84	-59.102
297.21	-50.239
297.57	-50.791
297.94	-60.000
298.30	-53.670
298.67	-61.342
299.04	-50.801
299.40	-54.030
299.77	-54.464
300.13	-52.396
300.50	-55.418
300.86	-51.707
301.23	-49.089
301.59	-57.516
301.96	-54.277
302.32	-58.555
302.69	-55.848
303.05	-52.403
303.42	-52.118
303.78	-52.245
304.14	-56.927
304.51	-55.218
304.87	-52.131
305.24	-50.000
305.60	-49.806
305.97	-50.462
306.33	-45.407
306.70	-42.976
307.06	-47.947
307.43	-47.173
307.79	-44.276
308.16	-51.347
308.52	-53.132
308.88	-56.985
309.25	-52.704
309.61	-53.834
309.98	-62.219
310.34	-45.496
310.71	-48.793
311.07	-53.736
311.44	-49.480
311.80	-52.853
312.16	-55.204
312.53	-44.571
312.89	-47.190
313.26	-51.076
313.62	-53.493
313.98	-39.673
314.35	-43.060
314.71	-42.409
315.08	-41.103
315.44	-43.026
315.80	-44.780
316.17	-48.185
316.53	-43.496
316.90	-44.733
317.26	-43.256
317.62	-42.295
317.99	-51.023
318.35	-42.285
318.72	-43.933
319.08	-39.180
319.44	-47.291
319.81	-38.328
320.17	-40.412
320.53	-38.774
320.90	-37.074
321.26	-39.533
321.62	-37.852
321.99	-39.062
322.35	-39.782
322.72	-38.748
323.08	-41.542
323.44	-38.289
323.81	-33.599
324.17	-39.687
324.53	-38.609
324.90	-32.543
325.26	-37.500
325.62	-36.785
325.99	-36.037
326.35	-38.584
326.71	-35.989
327.08	-32.348
327.44	-31.982
327.80	-30.879
328.16	-30.057
328.53	-39.055
328.89	-37.016
329.25	-39.379
329.62	-25.659
329.98	-29.520
330.34	-27.685
330.71	-35.088
331.07	-28.338
331.43	-27.393
331.79	-25.645
332.16	-20.823
332.52	-27.977
332.88	-30.227
333.24	-25.760
333.61	-27.375
333.97	-25.948
334.33	-22.204
334.70	-26.496
335.06	-23.148
335.42	-25.994
335.78	-23.320
336.15	-24.078
336.51	-24.670
336.87	-23.994
337.23	-20.740
337.60	-22.512
337.96	-23.029
338.32	-21.925
338.68	-21.398
339.04	-19.811
339.41	-22.238
339.77	-19.016
340.13	-20.743
340.49	-19.643
340.86	-19.316
341.22	-20.583
341.58	-22.676
341.94	-18.577
342.30	-20.817
342.67	-19.535
343.03	-18.405
343.39	-18.853
343.75	-17.727
344.11	-16.827
344.48	-17.875
344.84	-17.255
345.20	-17.719
345.56	-17.207
345.92	-16.468
346.28	-16.270
346.65	-14.815
347.01	-17.297
347.37	-13.700
347.73	-14.056
348.09	-13.950
348.45	-16.359
348.82	-14.385
349.18	-13.698
349.54	-13.493
349.90	-12.741
350.26	-13.872
350.62	-13.512
350.98	-12.606
351.35	-13.310
351.71	-12.215
352.07	-14.119
352.43	-12.358
352.79	-12.615
353.15	-13.669
353.51	-11.696
353.87	-12.084
354.24	-12.037
354.60	-10.296
354.96	-12.067
355.32	-11.811
355.68	-12.191
356.04	-10.570
356.40	-11.119
356.76	-9.771
357.12	-9.676
357.48	-9.963
357.85	-9.907
358.21	-10.398
358.57	-10.074
358.93	-10.952
359.29	-10.055
359.65	-9.151
360.01	-9.685
360.37	-8.746
360.73	-9.308
361.09	-8.718
361.45	-9.065
361.81	-7.537
362.17	-7.011
362.53	-8.262
362.89	-7.645
363.25	-7.191
363.62	-8.074
363.98	-7.919
364.34	-7.455
364.70	-6.868
365.06	-7.353
365.42	-7.262
365.78	-7.036
366.14	-7.461
366.50	-6.310
366.86	-7.256
367.22	-6.413
367.58	-6.898
367.94	-6.528
368.30	-6.520
368.66	-6.529
369.02	-6.459
369.38	-6.942
369.74	-6.144
370.10	-6.020
370.46	-6.276
370.82	-5.441
371.18	-5.972
371.54	-5.408
371.90	-5.749
372.26	-5.005
372.62	-4.706
372.98	-5.114
373.33	-5.266
373.69	-5.067
374.05	-4.299
374.41	-4.791
374.77	-4.238
375.13	-4.705
375.49	-4.950
375.85	-4.350
376.21	-4.254
376.57	-4.334
376.93	-4.567
377.29	-4.048
377.65	-3.546
378.01	-3.845
378.37	-3.311
378.73	-3.300
379.08	-3.408
379.44	-4.069
379.80	-3.610
380.16	-3.399
380.52	-3.338
380.88	-3.279
381.24	-3.108
381.60	-2.967
381.96	-2.667
382.32	-3.118
382.67	-2.234
383.03	-2.144
383.39	-2.632
383.75	-2.067
384.11	-1.598
384.47	-1.838
384.83	-1.773
385.19	-1.858
385.54	-1.616
385.90	-1.209
386.26	-1.280
386.62	-1.357
386.98	-1.252
387.34	-1.578
387.70	-0.860
388.05	-1.071
388.41	-0.503
388.77	-0.398
389.13	-0.006
389.49	-0.426
389.85	-0.408
390.20	-0.276
390.56	-0.018
390.92	0.175
391.28	0.141
391.64	0.234
391.99	0.773
392.35	0.645
392.71	0.927
393.07	0.755
393.43	0.874
393.78	1.230
394.14	1.610
394.50	1.453
394.86	1.510
395.22	1.704
395.57	1.744
395.93	1.826
396.29	2.094
396.65	2.318
397.00	2.030
397.36	2.194
397.72	2.298
398.08	2.807
398.43	2.896
398.79	3.183
399.15	2.849
399.51	2.893
399.86	3.398
400.22	3.791
400.58	3.303
400.94	3.606
401.29	3.573
401.65	3.803
402.01	4.025
402.37	4.344
402.72	3.924
403.08	4.277
403.44	4.643
403.79	4.853
404.15	4.590
404.51	5.020
404.86	4.982
405.22	5.349
405.58	5.239
405.94	5.271
406.29	5.550
406.65	5.770
407.01	5.771
407.36	5.728
407.72	5.772
408.08	6.029
408.43	6.324
408.79	6.509
409.15	6.300
409.50	6.631
409.86	6.665
410.22	6.661
410.57	6.995
410.93	7.203
411.29	7.226
411.64	7.050
412.00	7.253
412.35	7.375
412.71	7.602
413.07	7.704
413.42	7.787
413.78	8.013
414.14	7.940
414.49	8.118
414.85	8.346
415.20	8.439
415.56	8.640
415.92	8.698
416.27	8.758
416.63	8.969
416.98	8.928
417.34	9.228
417.70	9.264
418.05	9.353
418.41	9.275
418.76	9.528
419.12	9.729
419.47	9.679
419.83	9.785
420.19	10.244
420.54	10.254
420.90	10.275
421.25	10.240
421.61	10.288
421.96	10.594
422.32	10.594
422.67	10.699
423.03	10.932
423.39	10.981
423.74	11.162
424.10	11.087
424.45	11.295
424.81	11.288
425.16	11.454
425.52	11.624
425.87	11.638
426.23	11.847
426.58	11.686
426.94	11.933
427.29	12.361
427.65	12.268
428.00	12.165
428.36	12.436
428.71	12.588
429.07	12.610
429.42	12.701
429.78	12.839
430.13	12.917
430.49	12.862
430.84	13.262
431.19	13.203
431.55	13.281
431.90	13.413
432.26	13.607
432.61	13.678
432.97	13.666
433.32	13.887
433.68	13.876
434.03	14.153
434.39	14.238
434.74	14.199
435.09	14.231
435.45	14.292
435.80	14.460
436.16	14.556
436.51	14.596
436.86	14.650
437.22	14.841
437.57	14.901
437.93	14.912
438.28	15.088
438.63	15.056
438.99	15.296
439.34	15.429
439.70	15.668
440.05	15.456
440.40	15.506
440.76	15.692
441.11	15.598
441.47	15.841
441.82	16.074
442.17	16.055
442.53	16.209
442.88	16.302
443.23	16.355
443.59	16.489
443.94	16.589
444.29	16.508
444.65	16.729
445.00	16.780
445.35	16.871
445.71	16.832
446.06	17.073
446.41	17.088
446.77	16.990
447.12	17.122
447.47	17.279
447.83	17.427
448.18	17.459
448.53	17.594
448.89	17.591
449.24	17.711
449.59	17.732
449.94	17.749
450.30	17.938
450.65	18.099
451.00	18.217
451.36	18.355
451.71	18.287
452.06	18.393
452.41	18.400
452.77	18.623
453.12	18.598
453.47	18.718
453.82	18.869
454.18	18.931
454.53	18.868
454.88	18.996
455.23	19.141
455.59	19.178
455.94	19.293
456.29	19.345
456.64	19.448
457.00	19.520
457.35	19.656
457.70	19.680
458.05	19.771
458.40	19.865
458.76	19.980
459.11	20.002
459.46	20.109
459.81	20.211
460.16	20.219
460.52	20.352
460.87	20.593
461.22	20.488
461.57	20.491
461.92	20.638
462.28	20.656
462.63	20.856
462.98	20.845
463.33	20.957
463.68	20.978
464.03	21.022
464.38	21.087
464.74	21.157
465.09	21.348
465.44	21.408
465.79	21.414
466.14	21.540
466.49	21.567
466.84	21.570
467.20	21.697
467.55	21.722
467.90	21.906
468.25	21.646
468.60	21.939
468.95	21.958
469.30	22.042
469.65	22.078
470.00	22.198
470.36	22.252
470.71	22.277
471.06	22.265
471.41	22.430
471.76	22.295
472.11	22.501
472.46	22.501
472.81	22.513
473.16	22.601
473.51	22.576
473.86	22.604
474.21	22.623
474.56	22.685
474.91	22.683
475.26	22.682
475.62	22.774
475.97	22.672
476.32	22.725
476.67	22.759
477.02	22.861
477.37	22.875
477.72	22.825
478.07	22.833
478.42	22.839
478.77	22.968
479.12	22.945
479.47	22.977
479.82	22.936
480.17	22.909
480.52	22.962
480.87	22.933
481.22	22.968
481.57	22.901
481.92	22.912
482.27	22.910
482.62	23.042
482.97	23.013
483.32	22.977
483.67	22.941
484.02	23.015
484.36	23.031
484.71	23.086
485.06	23.132
485.41	23.118
485.76	23.188
486.11	23.195
486.46	23.157
486.81	23.241
487.16	23.231
487.51	23.291
487.86	23.338
488.21	23.429
488.56	23.431
488.91	23.451
489.25	23.488
489.60	23.619
489.95	23.626
490.30	23.627
490.65	23.838
491.00	23.777
491.35	23.891
491.70	23.985
492.05	23.922
492.39	24.083
492.74	24.209
493.09	24.105
493.44	24.285
493.79	24.334
494.14	24.426
494.49	24.468
494.83	24.522
495.18	24.554
495.53	24.738
495.88	24.732
496.23	24.791
496.58	24.938
496.92	24.947
497.27	25.026
497.62	25.073
497.97	25.217
498.32	25.281
498.67	25.287
499.01	25.376
499.36	25.412
499.71	25.469
500.06	25.551
500.41	25.593
500.75	25.652
501.10	25.739
501.45	25.754
501.80	25.806
502.14	25.907
502.49	25.919
502.84	25.955
503.19	26.100
503.53	26.092
503.88	26.112
504.23	26.118
504.58	26.247
504.92	26.255
505.27	26.363
505.62	26.326
505.97	26.363
506.31	26.389
506.66	26.411
507.01	26.435
507.36	26.542
507.70	26.510
508.05	26.501
508.40	26.526
508.74	26.475
509.09	26.417
509.44	26.478
509.79	26.388
510.13	26.434
510.48	26.362
510.83	26.369
511.17	26.315
511.52	26.318
511.87	26.334
512.21	26.389
512.56	26.335
512.91	26.362
513.25	26.417
513.60	26.413
513.95	26.489
514.29	26.459
514.64	26.538
514.98	26.533
515.33	26.588
515.68	26.719
516.02	26.700
516.37	26.677
516.72	26.762
517.06	26.766
517.41	26.812
517.75	26.822
518.10	26.902
518.45	26.894
518.79	26.897
519.14	26.961
519.48	26.973
519.83	26.972
520.18	27.006
520.52	27.060
520.87	27.047
521.21	27.113
521.56	27.107
521.90	27.098
522.25	27.147
522.60	27.065
522.94	27.168
523.29	27.123
523.63	27.128
523.98	27.143
524.32	27.087
524.67	27.091
525.01	27.138
525.36	27.062
525.70	27.010
526.05	27.031
526.39	26.942
526.74	26.975
527.08	26.845
527.43	26.840
527.77	26.790
528.12	26.736
528.46	26.673
528.81	26.629
529.15	26.550
529.50	26.491
529.84	26.375
530.19	26.334
530.53	26.258
530.88	26.174
531.22	26.040
531.57	25.995
531.91	25.849
532.26	25.718
532.60	25.583
532.94	25.466
533.29	25.393
533.63	25.203
533.98	25.056
534.32	24.910
534.67	24.772
535.01	24.578
535.35	24.410
535.70	24.242
536.04	24.055
536.39	23.883
536.73	23.672
537.07	23.545
537.42	23.362
537.76	23.188
538.11	22.990
538.45	22.792
538.79	22.588
539.14	22.423
539.48	22.227
539.82	22.059
540.17	21.879
540.51	21.736
540.85	21.609
541.20	21.424
541.54	21.315
541.89	21.146
542.23	21.059
542.57	20.926
542.92	20.799
543.26	20.730
543.60	20.666
543.94	20.613
544.29	20.562
544.63	20.520
544.97	20.436
545.32	20.474
545.66	20.400
546.00	20.401
546.35	20.385
546.69	20.439
547.03	20.380
547.37	20.445
547.72	20.448
548.06	20.433
548.40	20.452
548.75	20.565
549.09	20.646
549.43	20.588
549.77	20.760
550.12	20.754
550.46	20.826
550.80	20.949
551.14	21.053
551.49	21.105
551.83	21.311
552.17	21.406
552.51	21.483
552.85	21.584
553.20	21.784
553.54	21.919
553.88	22.107
554.22	22.282
554.56	22.430
554.91	22.645
555.25	22.788
555.59	22.986
555.93	23.218
556.27	23.411
556.62	23.668
556.96	23.921
557.30	24.029
557.64	24.277
557.98	24.511
558.32	24.714
558.67	24.938
559.01	25.244
559.35	25.370
559.69	25.598
560.03	25.818
560.37	26.032
560.71	26.236
561.05	26.534
561.40	26.668
561.74	26.880
562.08	27.025
562.42	27.233
562.76	27.433
563.10	27.636
563.44	27.746
563.78	27.946
564.12	28.130
564.46	28.306
564.81	28.426
565.15	28.488
565.49	28.632
565.83	28.717
566.17	28.777
566.51	28.930
566.85	28.966
567.19	29.086
567.53	29.160
567.87	29.270
568.21	29.266
568.55	29.308
568.89	29.377
569.23	29.419
569.57	29.422
569.91	29.411
570.25	29.431
570.59	29.406
570.93	29.383
571.27	29.440
571.61	29.382
571.95	29.389
572.29	29.292
572.63	29.306
572.97	29.201
573.31	29.123
573.65	29.035
573.99	28.984
574.33	28.876
574.67	28.812
575.01	28.768
575.35	28.650
575.69	28.572
576.03	28.495
576.37	28.300
576.71	28.225
577.05	28.103
577.39	28.019
577.73	27.865
578.06	27.719
578.40	27.574
578.74	27.491
579.08	27.293
579.42	27.145
579.76	26.924
580.10	26.751
580.44	26.672
580.78	26.433
581.12	26.301
581.45	26.126
581.79	25.917
582.13	25.732
582.47	25.649
582.81	25.405
583.15	25.303
583.49	25.064
583.83	24.909
584.16	24.775
584.50	24.678
584.84	24.546
585.18	24.460
585.52	24.314
585.86	24.146
586.19	24.026
586.53	23.908
586.87	23.754
587.21	23.632
587.55	23.448
587.88	23.325
588.22	23.174
588.56	22.973
588.90	22.855
589.24	22.690
589.57	22.494
589.91	22.340
590.25	22.188
590.59	21.965
590.92	21.759
591.26	21.566
591.60	21.374
591.94	21.137
592.27	20.952
592.61	20.686
592.95	20.468
593.29	20.224
593.62	19.994
593.96	19.661
594.30	19.451
594.64	19.149
594.97	18.862
595.31	18.563
595.65	18.227
595.98	17.844
596.32	17.512
596.66	17.168
597.00	16.722
597.33	16.382
597.67	15.981
598.01	15.570
598.34	15.143
598.68	14.763
599.02	14.352
599.35	13.951
599.69	13.647
600.03	13.261
600.36	12.941
600.70	12.634
601.03	12.332
601.37	12.051
601.71	11.786
602.04	11.497
602.38	11.277
602.72	11.012
603.05	10.767
603.39	10.516
603.72	10.302
604.06	10.061
604.40	9.836
604.73	9.613
605.07	9.352
605.40	9.120
605.74	8.913
606.08	8.658
606.41	8.411
606.75	8.144
607.08	7.909
607.42	7.657
607.75	7.417
608.09	7.163
608.42	6.923
608.76	6.674
609.10	6.408
609.43	6.181
609.77	5.960
610.10	5.707
610.44	5.461
610.77	5.231
611.11	5.031
611.44	4.819
611.78	4.593
612.11	4.382
612.45	4.195
612.78	4.007
613.12	3.808
613.45	3.644
613.79	3.450
614.12	3.258
614.46	3.088
614.79	2.966
615.13	2.794
615.46	2.676
615.79	2.536
616.13	2.406
616.46	2.295
616.80	2.208
617.13	2.114
617.47	2.017
617.80	1.930
618.13	1.870
618.47	1.797
618.80	1.723
619.14	1.657
619.47	1.585
619.81	1.528
620.14	1.437
620.47	1.423
620.81	1.384
621.14	1.318
621.47	1.280
621.81	1.214
622.14	1.193
622.48	1.148
622.81	1.139
623.14	1.083
623.48	1.058
623.81	1.014
624.14	1.029
624.48	0.976
624.81	0.975
625.14	0.931
625.48	0.923
625.81	0.945
626.14	0.905
626.48	0.918
626.81	0.921
627.14	0.908
627.48	0.910
627.81	0.919
628.14	0.921
628.47	0.955
628.81	0.949
629.14	0.975
629.47	0.984
629.81	1.023
630.14	1.057
630.47	1.086
630.80	1.144
631.14	1.175
631.47	1.255
631.80	1.307
632.13	1.376
632.47	1.442
632.80	1.510
633.13	1.622
633.46	1.721
633.79	1.820
634.13	1.937
634.46	2.045
634.79	2.191
635.12	2.312
635.45	2.433
635.79	2.580
636.12	2.753
636.45	2.935
636.78	3.095
637.11	3.251
637.45	3.440
637.78	3.651
638.11	3.823
638.44	4.055
638.77	4.254
639.10	4.468
639.44	4.711
639.77	4.933
640.10	5.180
640.43	5.400
640.76	5.634
641.09	5.870
641.42	6.098
641.75	6.329
642.08	6.595
642.42	6.793
642.75	7.055
643.08	7.324
643.41	7.523
643.74	7.760
644.07	7.991
644.40	8.213
644.73	8.416
645.06	8.620
645.39	8.868
645.72	9.074
646.05	9.286
646.38	9.468
646.72	9.669
647.05	9.890
647.38	10.017
647.71	10.186
648.04	10.323
648.37	10.476
648.70	10.639
649.03	10.716
649.36	10.824
649.69	10.940
650.02	11.066
650.35	11.090
650.68	11.179
651.01	11.166
651.34	11.195
651.67	11.176
652.00	11.155
652.33	11.115
652.66	11.072
652.99	10.974
653.31	10.889
653.64	10.740
653.97	10.568
654.30	10.418
654.63	10.238
654.96	9.999
655.29	9.805
655.62	9.586
655.95	9.346
656.28	9.131
656.61	8.870
656.94	8.592
657.27	8.358
657.60	8.102
657.92	7.912
658.25	7.662
658.58	7.380
658.91	7.218
659.24	6.990
659.57	6.805
659.90	6.603
660.23	6.419
660.55	6.220
660.88	6.032
661.21	5.889
661.54	5.693
661.87	5.550
662.20	5.411
662.52	5.285
662.85	5.105
663.18	4.973
663.51	4.828
663.84	4.690
664.16	4.527
664.49	4.403
664.82	4.277
665.15	4.186
665.48	4.086
665.80	3.943
666.13	3.852
666.46	3.738
666.79	3.658
667.12	3.533
667.44	3.466
667.77	3.331
668.10	3.272
668.43	3.193
668.75	3.121
669.08	3.085
669.41	2.991
669.73	2.945
670.06	2.859
670.39	2.841
670.72	2.739
671.04	2.667
671.37	2.665
671.70	2.597
672.02	2.571
672.35	2.518
672.68	2.477
673.00	2.440
673.33	2.420
673.66	2.387
673.98	2.386
674.31	2.345
674.64	2.321
674.96	2.283
675.29	2.262
675.62	2.274
675.94	2.243
676.27	2.217
676.60	2.187
676.92	2.219
677.25	2.198
677.58	2.159
677.90	2.150
678.23	2.193
678.55	2.134
678.88	2.114
679.21	2.146
679.53	2.124
679.86	2.120
680.18	2.100
680.51	2.067
680.83	2.054
681.16	2.038
681.49	2.012
681.81	2.001
682.14	1.982
682.46	1.980
682.79	1.945
683.11	1.950
683.44	1.887
683.76	1.877
684.09	1.865
684.41	1.856
684.74	1.863
685.06	1.819
685.39	1.823
685.71	1.812
686.04	1.789
686.36	1.744
686.69	1.753
687.01	1.750
687.34	1.731
687.66	1.699
687.99	1.696
688.31	1.691
688.64	1.696
688.96	1.674
689.29	1.636
689.61	1.594
689.93	1.579
690.26	1.558
690.58	1.535
690.91	1.496
691.23	1.460
691.56	1.436
691.88	1.420
692.20	1.366
692.53	1.298
692.85	1.279
693.18	1.248
693.50	1.216
693.82	1.178
694.15	1.094
694.47	1.068
694.79	0.965
695.12	0.996
695.44	0.894
695.76	0.837
696.09	0.816
696.41	0.736
696.73	0.717
697.06	0.644
697.38	0.589
697.70	0.558
698.03	0.476
698.35	0.465
698.67	0.393
699.00	0.358
699.32	0.329
699.64	0.269
699.97	0.228
700.29	0.172
700.61	0.137
700.93	0.128
701.26	0.097
701.58	0.046
701.90	0.047
702.22	-0.004
702.55	-0.030
702.87	-0.036
703.19	-0.068
703.51	-0.092
703.84	-0.085
704.16	-0.115
704.48	-0.117
704.80	-0.139
705.13	-0.151
705.45	-0.152
705.77	-0.182
706.09	-0.180
706.41	-0.201
706.74	-0.202
707.06	-0.216
707.38	-0.235
707.70	-0.203
708.02	-0.278
708.34	-0.270
708.67	-0.235
708.99	-0.277
709.31	-0.267
709.63	-0.284
709.95	-0.309
710.27	-0.273
710.59	-0.308
710.92	-0.254
711.24	-0.289
711.56	-0.305
711.88	-0.312
712.20	-0.307
712.52	-0.309
712.84	-0.331
713.16	-0.310
713.48	-0.338
713.80	-0.317
714.12	-0.336
714.45	-0.345
714.77	-0.327
715.09	-0.364
715.41	-0.363
715.73	-0.362
716.05	-0.366
716.37	-0.347
716.69	-0.378
717.01	-0.411
717.33	-0.344
717.65	-0.361
717.97	-0.388
718.29	-0.429
718.61	-0.430
718.93	-0.428
719.25	-0.427
719.57	-0.402
719.89	-0.462
720.21	-0.441
720.53	-0.404
720.85	-0.420
721.17	-0.467
721.49	-0.504
721.81	-0.508
722.13	-0.455
722.45	-0.470
722.77	-0.495
723.09	-0.464
723.41	-0.517
723.72	-0.512
724.04	-0.590
724.36	-0.558
724.68	-0.590
725.00	-0.620
725.32	-0.597
725.64	-0.639
725.96	-0.665
726.28	-0.618
726.60	-0.635
726.91	-0.673
727.23	-0.657
727.55	-0.664
727.87	-0.650
728.19	-0.660
728.51	-0.697
728.83	-0.660
729.14	-0.675
729.46	-0.648
729.78	-0.714
730.10	-0.755
730.42	-0.749
730.74	-0.690
731.05	-0.686
731.37	-0.755
731.69	-0.763
732.01	-0.845
732.33	-0.808
732.64	-0.784
732.96	-0.837
733.28	-0.724
733.60	-0.843
733.92	-0.758
734.23	-0.858
734.55	-0.734
734.87	-0.760
735.19	-0.824
735.50	-0.809
735.82	-0.877
736.14	-0.831
736.45	-0.892
736.77	-0.783
737.09	-0.770
737.41	-0.822
737.72	-0.773
738.04	-0.817
738.36	-0.843
738.67	-0.873
738.99	-0.818
739.31	-0.810
739.63	-0.726
739.94	-0.806
740.26	-0.861
740.58	-0.826
740.89	-0.787
741.21	-0.800
741.52	-0.787
741.84	-0.755
742.16	-0.852
742.47	-0.773
742.79	-0.807
743.11	-0.712
743.42	-0.770
743.74	-0.716
744.05	-0.722
744.37	-0.732
744.69	-0.768
745.00	-0.717
745.32	-0.668
745.63	-0.738
745.95	-0.747
746.27	-0.739
746.58	-0.736
746.90	-0.693
747.21	-0.726
747.53	-0.758
747.84	-0.662
748.16	-0.650
748.47	-0.700
748.79	-0.678
749.10	-0.752
749.42	-0.698
749.74	-0.734
750.05	-0.661
750.37	-0.686
750.68	-0.710
751.00	-0.653
751.31	-0.650
751.62	-0.629
751.94	-0.643
752.25	-0.639
752.57	-0.647
752.88	-0.697
753.20	-0.643
753.51	-0.664
753.83	-0.654
754.14	-0.601
754.46	-0.588
754.77	-0.574
755.08	-0.608
755.40	-0.567
755.71	-0.599
756.03	-0.576
756.34	-0.618
756.66	-0.637
756.97	-0.634
757.28	-0.608
757.60	-0.605
757.91	-0.556
758.22	-0.587
758.54	-0.553
758.85	-0.569
759.17	-0.566
759.48	-0.572
759.79	-0.567
760.11	-0.636
760.42	-0.562
760.73	-0.590
761.05	-0.573
761.36	-0.586
761.67	-0.559
761.99	-0.560
762.30	-0.548
762.61	-0.595
762.92	-0.550
763.24	-0.533
763.55	-0.547
763.86	-0.536
764.18	-0.524
764.49	-0.543
764.80	-0.617
765.11	-0.522
765.43	-0.573
765.74	-0.553
766.05	-0.533
766.36	-0.550
766.68	-0.482
766.99	-0.525
767.30	-0.520
767.61	-0.562
767.93	-0.625
768.24	-0.507
768.55	-0.530
768.86	-0.573
769.17	-0.556
769.49	-0.525
769.80	-0.566
770.11	-0.507
770.42	-0.503
770.73	-0.565
771.04	-0.558
771.36	-0.491
771.67	-0.538
771.98	-0.564
772.29	-0.493
772.60	-0.567
772.91	-0.507
773.22	-0.521
773.54	-0.549
773.85	-0.539
774.16	-0.548
774.47	-0.614
774.78	-0.564
775.09	-0.557
775.40	-0.589
775.71	-0.652
776.02	-0.554
776.33	-0.562
776.64	-0.536
776.96	-0.594
777.27	-0.566
777.58	-0.590
777.89	-0.595
778.20	-0.592
778.51	-0.564
778.82	-0.590
779.13	-0.586
779.44	-0.597
779.75	-0.591
780.06	-0.639
780.37	-0.674
780.68	-0.651
780.99	-0.617
781.30	-0.633
781.61	-0.647
781.92	-0.653
782.23	-0.617
782.54	-0.669
782.85	-0.652
783.16	-0.661
783.47	-0.708
783.78	-0.630
784.08	-0.632
784.39	-0.679
784.70	-0.665
785.01	-0.730
785.32	-0.687
785.63	-0.661
785.94	-0.651
786.25	-0.713
786.56	-0.695
786.87	-0.732
787.18	-0.781
787.48	-0.775
787.79	-0.741
788.10	-0.814
788.41	-0.823
788.72	-0.779
789.03	-0.860
789.34	-0.851
789.64	-0.769
789.95	-0.788
790.26	-0.796
790.57	-0.891
790.88	-0.833
791.19	-0.869
791.49	-0.842
791.80	-0.858
792.11	-0.799
792.42	-0.920
792.73	-0.944
793.03	-0.897
793.34	-0.874
793.65	-0.891
793.96	-0.870
794.27	-0.928
794.57	-0.932
794.88	-1.006
795.19	-0.889
795.50	-0.945
795.80	-1.052
796.11	-1.039
796.42	-0.999
796.72	-1.019
797.03	-0.971
797.34	-0.951
797.65	-1.123
797.95	-0.988
798.26	-1.027
798.57	-1.097
798.87	-1.100
799.18	-1.110
799.49	-1.136
799.79	-1.154
800.10	-1.160
800.41	-1.114
800.71	-1.186
801.02	-1.172
801.33	-1.181
801.63	-1.160
801.94	-1.221
802.24	-1.277
802.55	-1.291
802.86	-1.321
803.16	-1.255
803.47	-1.354
803.77	-1.268
804.08	-1.308
804.39	-1.320
804.69	-1.261
805.00	-1.303
805.30	-1.282
805.61	-1.385
805.91	-1.376
806.22	-1.300
806.53	-1.289
806.83	-1.408
807.14	-1.452
807.44	-1.454
807.75	-1.552
808.05	-1.608
808.36	-1.519
808.66	-1.656
808.97	-1.663
809.27	-1.544
809.58	-1.518
809.88	-1.583
810.19	-1.588
810.49	-1.583
810.80	-1.696
811.10	-1.515
811.41	-1.758
811.71	-1.783
812.01	-1.749
812.32	-1.679
812.62	-1.737
812.93	-1.767
813.23	-1.758
813.54	-1.847
813.84	-1.860
814.14	-1.808
814.45	-1.849
814.75	-1.884
815.06	-2.061
815.36	-1.938
815.66	-1.997
815.97	-2.262
816.27	-2.212
816.58	-2.154
816.88	-2.187
817.18	-2.060
817.49	-2.199
817.79	-2.306
818.09	-2.042
818.40	-2.241
818.70	-2.229
819.00	-2.125
819.31	-2.314
819.61	-2.343
819.91	-2.423
820.21	-2.303
820.52	-2.414
820.82	-2.319
821.12	-2.456
821.43	-2.402
821.73	-2.629
822.03	-2.718
822.33	-2.809
822.64	-2.535
822.94	-2.841
823.24	-2.524
823.54	-2.973
823.85	-2.889
824.15	-2.813
824.45	-2.891
824.75	-3.245
825.05	-3.121
825.36	-2.732
825.66	-3.101
825.96	-3.364
826.26	-3.208
826.56	-3.362
826.87	-3.462
827.17	-3.379
827.47	-3.524
827.77	-3.464
828.07	-3.601
828.37	-3.387
828.67	-3.989
828.98	-3.707
829.28	-3.482
829.58	-4.094
829.88	-4.050
830.18	-4.495
830.48	-4.426
830.78	-3.989
831.08	-4.240
831.38	-4.680
831.69	-4.364
831.99	-4.471
832.29	-4.853
832.59	-5.063
832.89	-5.031
833.19	-4.311
833.49	-5.214
833.79	-4.879
834.09	-5.188
834.39	-4.869
834.69	-5.702
834.99	-6.008
835.29	-5.814
835.59	-5.510
835.89	-6.206
836.19	-6.024
836.49	-5.948
836.79	-6.264
837.09	-6.415
837.39	-6.111
837.69	-6.875
837.99	-6.838
838.29	-6.635
838.59	-7.136
838.89	-7.707
839.19	-7.278
839.49	-7.158
839.79	-7.425
840.09	-7.408
840.39	-8.789
840.68	-7.729
840.98	-8.513
841.28	-8.499
841.58	-9.155
841.88	-8.801
842.18	-8.490
842.48	-9.407
842.78	-9.371
843.08	-10.372
843.37	-9.589
843.67	-10.624
843.97	-10.722
844.27	-10.205
844.57	-10.072
844.87	-10.907
845.16	-11.838
845.46	-11.728
845.76	-11.944
846.06	-11.344
846.36	-12.906
846.66	-12.309
846.95	-13.531
847.25	-13.028
847.55	-15.274
847.85	-13.434
848.14	-14.816
848.44	-14.558
848.74	-15.770
849.04	-15.802
849.33	-17.015
849.63	-17.175
849.93	-14.958
850.23	-19.188
850.52	-17.053
850.82	-18.474
851.12	-22.106
851.42	-19.121
851.71	-18.742
852.01	-21.242
852.31	-20.442
852.60	-20.320
852.90	-21.953
853.20	-21.890
853.49	-21.837
853.79	-21.891
854.09	-23.605
854.38	-23.380
854.68	-23.757
854.98	-22.511
855.27	-24.095
855.57	-26.757
855.86	-25.348
856.16	-24.087
856.46	-26.964
856.75	-26.292
857.05	-27.913
857.34	-25.118
857.64	-27.279
857.94	-25.128
858.23	-28.439
858.53	-25.578
858.82	-29.109
859.12	-26.127
859.41	-26.826
859.71	-29.272
860.01	-29.552
860.30	-27.632
860.60	-29.676
860.89	-29.164
861.19	-28.379
861.48	-27.447
861.78	-27.043
862.07	-28.087
862.37	-28.297
862.66	-30.335
862.96	-29.841
863.25	-31.638
863.55	-27.950
863.84	-28.529
864.13	-30.537
864.43	-26.597
864.72	-29.865
865.02	-26.474
865.31	-29.740
865.61	-30.126
865.90	-27.550
866.19	-25.477
866.49	-33.697
866.78	-27.458
867.08	-30.790
867.37	-28.669
867.66	-28.369
867.96	-27.552
868.25	-28.926
868.55	-29.405
868.84	-27.815
869.13	-32.146
869.43	-30.141
869.72	-32.402
870.01	-31.513
870.31	-29.639
870.60	-30.804
870.89	-27.883
871.19	-30.496
871.48	-28.154
871.77	-32.182
872.07	-29.292
872.36	-31.319
872.65	-30.951
872.94	-27.416
873.24	-28.178
873.53	-31.907
873.82	-31.656
874.11	-31.214
874.41	-29.579
874.70	-29.843
>>>>>End Processed Spectral Data<<<<<
