SpectraSuite Data File
++++++++++++++++++++++++++++++++++++
Date: Thu Apr 16 20:02:04 BST 2015
User: mpfc3
Dark Spectrum Present: Yes
Reference Spectrum Present: Yes
Number of Sampled Component Spectra: 1
Spectrometers: USB2E3636
Integration Time (usec): 30000 (USB2E3636)
Spectra Averaged: 100 (USB2E3636)
Boxcar Smoothing: 0 (USB2E3636)
Correct for Electrical Dark: No (USB2E3636)
Strobe/Lamp Enabled: No (USB2E3636)
Correct for Detector Non-linearity: No (USB2E3636)
Correct for Stray Light: No (USB2E3636)
Number of Pixels in Processed Spectrum: 2048
>>>>>Begin Processed Spectral Data<<<<<
180.28	0.000
180.65	376.623
181.02	366.812
181.39	372.764
181.77	388.285
182.14	358.776
182.51	366.142
182.88	329.818
183.25	376.316
183.63	387.083
184.00	388.934
184.37	461.881
184.74	370.039
185.11	369.512
185.49	320.486
185.86	418.878
186.23	358.052
186.60	467.857
186.97	295.808
187.35	375.304
187.72	373.191
188.09	391.701
188.46	321.708
188.83	372.764
189.20	-271.519
189.58	-40.468
189.95	-41.993
190.32	-40.674
190.69	-38.412
191.06	-41.475
191.43	-39.912
191.81	-40.011
192.18	-38.568
192.55	-39.676
192.92	-43.339
193.29	-38.466
193.66	-34.521
194.03	-37.105
194.41	-42.593
194.78	-40.259
195.15	-36.789
195.52	-39.736
195.89	-33.890
196.26	-43.539
196.63	-39.925
197.01	-40.411
197.38	-38.667
197.75	-36.558
198.12	-42.479
198.49	-39.903
198.86	-43.079
199.23	-36.917
199.60	-43.357
199.98	-38.835
200.35	-42.078
200.72	-44.224
201.09	-44.475
201.46	-43.794
201.83	-41.342
202.20	-40.118
202.57	-38.474
202.94	-42.978
203.31	-39.614
203.69	-38.200
204.06	-46.592
204.43	-41.209
204.80	-42.405
205.17	-40.592
205.54	-42.857
205.91	-43.697
206.28	-41.301
206.65	-41.291
207.02	-40.842
207.39	-44.202
207.76	-38.708
208.14	-38.525
208.51	-40.056
208.88	-36.323
209.25	-35.378
209.62	-43.721
209.99	-43.544
210.36	-39.789
210.73	-44.699
211.10	-41.608
211.47	-44.510
211.84	-40.431
212.21	-45.699
212.58	-44.701
212.95	-44.842
213.32	-43.097
213.69	-44.019
214.06	-44.570
214.43	-48.395
214.80	-43.271
215.17	-47.322
215.55	-40.046
215.92	-39.650
216.29	-44.156
216.66	-42.381
217.03	-44.172
217.40	-41.492
217.77	-48.948
218.14	-44.994
218.51	-42.639
218.88	-50.032
219.25	-44.575
219.62	-51.472
219.99	-46.438
220.36	-44.576
220.73	-47.497
221.10	-41.984
221.47	-51.638
221.84	-48.919
222.21	-43.770
222.58	-49.675
222.95	-46.054
223.32	-45.409
223.69	-44.325
224.06	-42.883
224.43	-45.285
224.80	-44.037
225.17	-47.857
225.54	-53.406
225.91	-52.295
226.27	-44.664
226.64	-47.070
227.01	-46.662
227.38	-44.901
227.75	-50.358
228.12	-52.390
228.49	-50.895
228.86	-56.510
229.23	-52.130
229.60	-47.838
229.97	-50.165
230.34	-48.185
230.71	-48.790
231.08	-52.085
231.45	-51.907
231.82	-47.549
232.19	-51.475
232.56	-46.450
232.93	-52.602
233.30	-53.946
233.66	-51.327
234.03	-48.685
234.40	-57.951
234.77	-51.842
235.14	-58.099
235.51	-63.772
235.88	-53.939
236.25	-55.524
236.62	-50.247
236.99	-58.055
237.36	-51.754
237.73	-54.029
238.09	-58.881
238.46	-50.176
238.83	-52.980
239.20	-57.538
239.57	-55.170
239.94	-52.305
240.31	-58.013
240.68	-57.515
241.05	-51.592
241.41	-58.094
241.78	-57.143
242.15	-54.006
242.52	-58.506
242.89	-57.781
243.26	-51.911
243.63	-61.509
244.00	-58.302
244.36	-57.598
244.73	-57.924
245.10	-60.015
245.47	-61.124
245.84	-59.817
246.21	-61.934
246.58	-53.419
246.94	-60.243
247.31	-57.802
247.68	-54.220
248.05	-65.452
248.42	-55.589
248.79	-61.388
249.15	-61.173
249.52	-63.789
249.89	-62.736
250.26	-57.935
250.63	-54.173
251.00	-57.619
251.36	-66.063
251.73	-62.855
252.10	-56.287
252.47	-71.275
252.84	-54.380
253.20	-59.038
253.57	-62.336
253.94	-58.162
254.31	-63.578
254.68	-60.281
255.05	-63.162
255.41	-56.479
255.78	-66.694
256.15	-54.343
256.52	-55.172
256.88	-55.978
257.25	-59.325
257.62	-63.409
257.99	-72.298
258.36	-56.354
258.72	-59.043
259.09	-56.260
259.46	-67.178
259.83	-54.538
260.19	-69.644
260.56	-53.952
260.93	-64.947
261.30	-58.721
261.67	-68.234
262.03	-62.439
262.40	-64.191
262.77	-61.216
263.14	-66.282
263.50	-65.045
263.87	-54.496
264.24	-61.071
264.61	-58.293
264.97	-62.011
265.34	-48.471
265.71	-61.352
266.07	-57.797
266.44	-56.608
266.81	-57.899
267.18	-64.055
267.54	-63.006
267.91	-67.652
268.28	-62.894
268.64	-68.089
269.01	-65.712
269.38	-61.784
269.75	-65.714
270.11	-63.796
270.48	-68.186
270.85	-62.918
271.21	-53.078
271.58	-62.716
271.95	-62.739
272.32	-65.658
272.68	-63.410
273.05	-67.472
273.42	-67.692
273.78	-59.205
274.15	-65.970
274.52	-73.443
274.88	-62.884
275.25	-66.811
275.62	-55.924
275.98	-64.227
276.35	-67.247
276.72	-69.056
277.08	-65.327
277.45	-65.796
277.82	-60.099
278.18	-55.987
278.55	-62.500
278.92	-63.109
279.28	-66.667
279.65	-71.505
280.01	-65.467
280.38	-60.613
280.75	-59.284
281.11	-63.644
281.48	-61.607
281.85	-66.724
282.21	-58.333
282.58	-68.377
282.95	-58.259
283.31	-61.829
283.68	-63.990
284.04	-75.294
284.41	-66.276
284.78	-68.159
285.14	-63.651
285.51	-61.466
285.87	-63.373
286.24	-64.220
286.61	-65.556
286.97	-65.246
287.34	-65.030
287.70	-61.330
288.07	-61.551
288.44	-65.065
288.80	-61.657
289.17	-59.888
289.53	-65.635
289.90	-64.439
290.26	-66.500
290.63	-69.767
291.00	-69.921
291.36	-61.806
291.73	-71.454
292.09	-64.081
292.46	-60.888
292.82	-60.940
293.19	-63.300
293.56	-72.598
293.92	-63.455
294.29	-69.400
294.65	-68.860
295.02	-64.207
295.38	-62.218
295.75	-61.861
296.11	-66.553
296.48	-72.939
296.84	-61.050
297.21	-56.539
297.57	-54.747
297.94	-64.957
298.30	-62.431
298.67	-64.146
299.04	-55.609
299.40	-59.704
299.77	-62.244
300.13	-60.974
300.50	-60.959
300.86	-58.618
301.23	-51.781
301.59	-61.765
301.96	-61.151
302.32	-64.618
302.69	-58.947
303.05	-60.441
303.42	-58.114
303.78	-56.966
304.14	-63.217
304.51	-55.374
304.87	-52.359
305.24	-55.023
305.60	-51.901
305.97	-54.854
306.33	-51.307
306.70	-52.039
307.06	-52.363
307.43	-54.762
307.79	-50.341
308.16	-64.501
308.52	-60.825
308.88	-57.853
309.25	-59.101
309.61	-63.866
309.98	-66.555
310.34	-55.337
310.71	-53.695
311.07	-61.049
311.44	-52.972
311.80	-51.577
312.16	-55.581
312.53	-50.786
312.89	-51.729
313.26	-54.343
313.62	-58.006
313.98	-45.058
314.35	-48.612
314.71	-51.532
315.08	-49.379
315.44	-51.284
315.80	-49.107
316.17	-54.235
316.53	-48.107
316.90	-54.565
317.26	-48.093
317.62	-46.230
317.99	-50.955
318.35	-44.823
318.72	-45.165
319.08	-46.246
319.44	-51.104
319.81	-42.701
320.17	-44.981
320.53	-47.717
320.90	-38.996
321.26	-41.989
321.62	-41.512
321.99	-46.313
322.35	-45.058
322.72	-46.631
323.08	-45.709
323.44	-47.573
323.81	-38.999
324.17	-43.875
324.53	-46.203
324.90	-38.224
325.26	-41.395
325.62	-41.533
325.99	-39.166
326.35	-42.123
326.71	-41.593
327.08	-35.726
327.44	-36.294
327.80	-36.299
328.16	-33.437
328.53	-42.339
328.89	-35.278
329.25	-39.712
329.62	-27.883
329.98	-34.323
330.34	-31.065
330.71	-31.626
331.07	-33.894
331.43	-30.967
331.79	-29.242
332.16	-26.933
332.52	-31.164
332.88	-32.021
333.24	-30.167
333.61	-33.970
333.97	-29.196
334.33	-27.347
334.70	-32.026
335.06	-26.191
335.42	-28.751
335.78	-27.344
336.15	-27.262
336.51	-27.972
336.87	-25.795
337.23	-24.764
337.60	-22.258
337.96	-26.008
338.32	-26.239
338.68	-24.682
339.04	-23.934
339.41	-23.005
339.77	-21.645
340.13	-23.446
340.49	-22.255
340.86	-21.487
341.22	-22.298
341.58	-25.700
341.94	-20.565
342.30	-22.845
342.67	-22.321
343.03	-21.613
343.39	-20.735
343.75	-21.054
344.11	-19.563
344.48	-20.793
344.84	-19.005
345.20	-20.961
345.56	-18.565
345.92	-18.740
346.28	-19.656
346.65	-16.887
347.01	-19.633
347.37	-16.525
347.73	-16.114
348.09	-15.284
348.45	-19.315
348.82	-16.351
349.18	-15.827
349.54	-15.086
349.90	-15.817
350.26	-16.146
350.62	-14.099
350.98	-14.784
351.35	-14.455
351.71	-14.754
352.07	-14.811
352.43	-14.800
352.79	-14.124
353.15	-14.754
353.51	-12.849
353.87	-13.998
354.24	-13.101
354.60	-13.124
354.96	-14.275
355.32	-12.533
355.68	-12.884
356.04	-11.647
356.40	-12.298
356.76	-11.325
357.12	-10.352
357.48	-11.125
357.85	-11.716
358.21	-12.263
358.57	-11.237
358.93	-11.541
359.29	-11.767
359.65	-10.048
360.01	-10.617
360.37	-10.270
360.73	-10.487
361.09	-9.786
361.45	-9.897
361.81	-8.746
362.17	-8.920
362.53	-8.596
362.89	-8.451
363.25	-8.009
363.62	-8.963
363.98	-9.749
364.34	-8.854
364.70	-8.638
365.06	-9.410
365.42	-8.466
365.78	-8.420
366.14	-7.678
366.50	-8.158
366.86	-7.835
367.22	-8.166
367.58	-8.025
367.94	-7.657
368.30	-7.284
368.66	-7.226
369.02	-6.784
369.38	-7.671
369.74	-6.769
370.10	-7.200
370.46	-7.253
370.82	-6.602
371.18	-6.705
371.54	-6.616
371.90	-5.876
372.26	-5.888
372.62	-5.269
372.98	-5.937
373.33	-6.386
373.69	-6.411
374.05	-4.905
374.41	-5.428
374.77	-4.983
375.13	-5.807
375.49	-5.495
375.85	-4.826
376.21	-4.854
376.57	-4.901
376.93	-5.049
377.29	-4.557
377.65	-4.214
378.01	-3.776
378.37	-4.373
378.73	-3.896
379.08	-4.667
379.44	-4.175
379.80	-4.238
380.16	-3.939
380.52	-3.907
380.88	-3.945
381.24	-3.885
381.60	-3.790
381.96	-3.437
382.32	-3.502
382.67	-3.265
383.03	-2.844
383.39	-3.335
383.75	-2.471
384.11	-2.709
384.47	-2.298
384.83	-2.518
385.19	-2.276
385.54	-2.372
385.90	-1.731
386.26	-1.693
386.62	-1.517
386.98	-1.777
387.34	-1.499
387.70	-1.592
388.05	-1.643
388.41	-1.076
388.77	-0.429
389.13	-0.388
389.49	-0.876
389.85	-0.865
390.20	-0.847
390.56	-0.514
390.92	-0.466
391.28	-0.441
391.64	0.051
391.99	-0.040
392.35	0.288
392.71	0.480
393.07	0.522
393.43	0.284
393.78	0.740
394.14	1.133
394.50	1.280
394.86	1.009
395.22	1.546
395.57	1.309
395.93	1.394
396.29	1.802
396.65	1.828
397.00	1.799
397.36	1.713
397.72	1.799
398.08	2.238
398.43	2.435
398.79	2.662
399.15	2.688
399.51	2.847
399.86	2.620
400.22	2.842
400.58	3.054
400.94	3.376
401.29	3.348
401.65	3.566
402.01	3.528
402.37	3.782
402.72	4.034
403.08	4.194
403.44	4.263
403.79	4.388
404.15	4.250
404.51	4.531
404.86	4.413
405.22	4.991
405.58	4.949
405.94	4.965
406.29	5.169
406.65	5.561
407.01	5.152
407.36	5.537
407.72	5.398
408.08	5.578
408.43	6.048
408.79	5.886
409.15	6.180
409.50	6.329
409.86	5.988
410.22	6.418
410.57	6.481
410.93	6.839
411.29	6.981
411.64	7.001
412.00	7.014
412.35	7.262
412.71	7.625
413.07	7.530
413.42	7.478
413.78	7.637
414.14	7.725
414.49	7.846
414.85	8.015
415.20	8.101
415.56	8.420
415.92	8.262
416.27	8.558
416.63	8.675
416.98	8.772
417.34	8.627
417.70	9.109
418.05	9.157
418.41	9.217
418.76	9.258
419.12	9.492
419.47	9.537
419.83	9.628
420.19	9.879
420.54	10.019
420.90	10.030
421.25	10.056
421.61	10.172
421.96	10.419
422.32	10.573
422.67	10.485
423.03	10.778
423.39	10.836
423.74	10.940
424.10	10.941
424.45	11.084
424.81	11.225
425.16	11.280
425.52	11.504
425.87	11.377
426.23	11.592
426.58	11.737
426.94	11.778
427.29	12.112
427.65	12.089
428.00	12.039
428.36	12.397
428.71	12.294
429.07	12.350
429.42	12.458
429.78	12.534
430.13	12.725
430.49	12.782
430.84	12.898
431.19	13.060
431.55	13.201
431.90	13.267
432.26	13.369
432.61	13.568
432.97	13.581
433.32	13.644
433.68	13.731
434.03	13.920
434.39	14.051
434.74	13.968
435.09	14.235
435.45	14.272
435.80	14.387
436.16	14.395
436.51	14.402
436.86	14.562
437.22	14.623
437.57	14.772
437.93	14.881
438.28	14.968
438.63	14.977
438.99	15.191
439.34	15.146
439.70	15.504
440.05	15.262
440.40	15.433
440.76	15.561
441.11	15.467
441.47	15.749
441.82	15.822
442.17	15.901
442.53	16.044
442.88	16.312
443.23	16.242
443.59	16.289
443.94	16.325
444.29	16.409
444.65	16.411
445.00	16.610
445.35	16.735
445.71	16.863
446.06	16.817
446.41	16.822
446.77	16.916
447.12	17.048
447.47	17.167
447.83	17.274
448.18	17.330
448.53	17.485
448.89	17.426
449.24	17.631
449.59	17.656
449.94	17.737
450.30	17.795
450.65	17.818
451.00	17.993
451.36	18.159
451.71	18.234
452.06	18.283
452.41	18.293
452.77	18.454
453.12	18.550
453.47	18.564
453.82	18.734
454.18	18.706
454.53	18.797
454.88	18.958
455.23	18.961
455.59	19.014
455.94	19.170
456.29	19.208
456.64	19.312
457.00	19.400
457.35	19.454
457.70	19.554
458.05	19.493
458.40	19.694
458.76	19.904
459.11	19.913
459.46	19.985
459.81	20.013
460.16	20.167
460.52	20.163
460.87	20.435
461.22	20.331
461.57	20.412
461.92	20.516
462.28	20.601
462.63	20.749
462.98	20.731
463.33	20.840
463.68	20.823
464.03	20.898
464.38	20.988
464.74	21.078
465.09	21.303
465.44	21.172
465.79	21.310
466.14	21.253
466.49	21.426
466.84	21.433
467.20	21.607
467.55	21.569
467.90	21.669
468.25	21.555
468.60	21.891
468.95	21.900
469.30	21.925
469.65	22.057
470.00	22.125
470.36	22.077
470.71	22.167
471.06	22.205
471.41	22.280
471.76	22.241
472.11	22.371
472.46	22.353
472.81	22.345
473.16	22.524
473.51	22.523
473.86	22.433
474.21	22.531
474.56	22.641
474.91	22.703
475.26	22.636
475.62	22.635
475.97	22.700
476.32	22.732
476.67	22.730
477.02	22.729
477.37	22.837
477.72	22.793
478.07	22.777
478.42	22.760
478.77	22.864
479.12	22.779
479.47	22.841
479.82	22.932
480.17	22.887
480.52	22.886
480.87	22.988
481.22	22.981
481.57	22.911
481.92	22.895
482.27	22.964
482.62	22.940
482.97	22.906
483.32	22.879
483.67	22.907
484.02	22.947
484.36	22.924
484.71	22.949
485.06	22.998
485.41	23.007
485.76	23.107
486.11	23.128
486.46	23.078
486.81	23.161
487.16	23.195
487.51	23.278
487.86	23.272
488.21	23.297
488.56	23.403
488.91	23.392
489.25	23.479
489.60	23.566
489.95	23.571
490.30	23.615
490.65	23.665
491.00	23.779
491.35	23.863
491.70	23.930
492.05	23.908
492.39	24.045
492.74	24.115
493.09	24.117
493.44	24.167
493.79	24.269
494.14	24.332
494.49	24.412
494.83	24.465
495.18	24.512
495.53	24.648
495.88	24.707
496.23	24.773
496.58	24.895
496.92	24.909
497.27	24.992
497.62	25.100
497.97	25.151
498.32	25.275
498.67	25.288
499.01	25.263
499.36	25.388
499.71	25.413
500.06	25.510
500.41	25.544
500.75	25.676
501.10	25.657
501.45	25.680
501.80	25.755
502.14	25.926
502.49	25.869
502.84	25.883
503.19	25.994
503.53	26.035
503.88	26.122
504.23	26.090
504.58	26.156
504.92	26.257
505.27	26.225
505.62	26.352
505.97	26.341
506.31	26.398
506.66	26.408
507.01	26.383
507.36	26.409
507.70	26.404
508.05	26.450
508.40	26.460
508.74	26.474
509.09	26.344
509.44	26.427
509.79	26.391
510.13	26.344
510.48	26.365
510.83	26.318
511.17	26.282
511.52	26.268
511.87	26.277
512.21	26.304
512.56	26.299
512.91	26.312
513.25	26.403
513.60	26.406
513.95	26.382
514.29	26.386
514.64	26.517
514.98	26.547
515.33	26.543
515.68	26.580
516.02	26.660
516.37	26.574
516.72	26.745
517.06	26.773
517.41	26.794
517.75	26.818
518.10	26.826
518.45	26.859
518.79	26.886
519.14	26.983
519.48	26.957
519.83	26.962
520.18	27.034
520.52	26.991
520.87	26.985
521.21	27.090
521.56	27.106
521.90	27.018
522.25	27.062
522.60	27.082
522.94	27.115
523.29	27.129
523.63	27.082
523.98	27.023
524.32	27.044
524.67	27.033
525.01	27.101
525.36	27.013
525.70	26.961
526.05	26.977
526.39	26.924
526.74	26.906
527.08	26.826
527.43	26.735
527.77	26.721
528.12	26.689
528.46	26.662
528.81	26.602
529.15	26.476
529.50	26.441
529.84	26.439
530.19	26.334
530.53	26.182
530.88	26.107
531.22	26.082
531.57	25.923
531.91	25.791
532.26	25.709
532.60	25.584
532.94	25.434
533.29	25.312
533.63	25.214
533.98	25.043
534.32	24.866
534.67	24.718
535.01	24.518
535.35	24.385
535.70	24.167
536.04	24.022
536.39	23.866
536.73	23.686
537.07	23.513
537.42	23.289
537.76	23.100
538.11	22.948
538.45	22.752
538.79	22.561
539.14	22.369
539.48	22.206
539.82	21.996
540.17	21.845
540.51	21.689
540.85	21.580
541.20	21.411
541.54	21.245
541.89	21.125
542.23	21.009
542.57	20.917
542.92	20.864
543.26	20.701
543.60	20.680
543.94	20.584
544.29	20.523
544.63	20.466
544.97	20.418
545.32	20.396
545.66	20.425
546.00	20.417
546.35	20.344
546.69	20.412
547.03	20.383
547.37	20.395
547.72	20.412
548.06	20.417
548.40	20.465
548.75	20.531
549.09	20.567
549.43	20.585
549.77	20.727
550.12	20.731
550.46	20.808
550.80	20.922
551.14	21.023
551.49	21.086
551.83	21.228
552.17	21.389
552.51	21.458
552.85	21.611
553.20	21.759
553.54	21.883
553.88	22.074
554.22	22.215
554.56	22.464
554.91	22.643
555.25	22.821
555.59	22.983
555.93	23.185
556.27	23.397
556.62	23.624
556.96	23.871
557.30	23.986
557.64	24.254
557.98	24.493
558.32	24.685
558.67	24.918
559.01	25.206
559.35	25.346
559.69	25.582
560.03	25.789
560.37	26.028
560.71	26.259
561.05	26.458
561.40	26.642
561.74	26.800
562.08	27.037
562.42	27.207
562.76	27.411
563.10	27.597
563.44	27.737
563.78	27.912
564.12	28.072
564.46	28.247
564.81	28.350
565.15	28.445
565.49	28.566
565.83	28.697
566.17	28.862
566.51	28.905
566.85	29.022
567.19	29.023
567.53	29.125
567.87	29.274
568.21	29.305
568.55	29.288
568.89	29.313
569.23	29.363
569.57	29.372
569.91	29.348
570.25	29.405
570.59	29.427
570.93	29.312
571.27	29.340
571.61	29.364
571.95	29.412
572.29	29.317
572.63	29.251
572.97	29.162
573.31	29.092
573.65	29.013
573.99	28.961
574.33	28.786
574.67	28.755
575.01	28.739
575.35	28.636
575.69	28.538
576.03	28.378
576.37	28.301
576.71	28.198
577.05	28.080
577.39	27.962
577.73	27.844
578.06	27.661
578.40	27.554
578.74	27.499
579.08	27.246
579.42	27.107
579.76	26.867
580.10	26.769
580.44	26.573
580.78	26.473
581.12	26.261
581.45	26.121
581.79	25.907
582.13	25.704
582.47	25.610
582.81	25.432
583.15	25.238
583.49	25.088
583.83	24.987
584.16	24.796
584.50	24.691
584.84	24.545
585.18	24.357
585.52	24.260
585.86	24.108
586.19	24.002
586.53	23.901
586.87	23.759
587.21	23.537
587.55	23.416
587.88	23.305
588.22	23.172
588.56	22.994
588.90	22.797
589.24	22.651
589.57	22.477
589.91	22.336
590.25	22.162
590.59	21.922
590.92	21.753
591.26	21.558
591.60	21.351
591.94	21.122
592.27	20.898
592.61	20.629
592.95	20.401
593.29	20.211
593.62	19.975
593.96	19.675
594.30	19.445
594.64	19.106
594.97	18.840
595.31	18.466
595.65	18.130
595.98	17.855
596.32	17.496
596.66	17.103
597.00	16.690
597.33	16.344
597.67	15.903
598.01	15.504
598.34	15.108
598.68	14.751
599.02	14.294
599.35	13.909
599.69	13.574
600.03	13.205
600.36	12.840
600.70	12.593
601.03	12.311
601.37	12.028
601.71	11.734
602.04	11.479
602.38	11.206
602.72	10.965
603.05	10.762
603.39	10.532
603.72	10.287
604.06	10.026
604.40	9.816
604.73	9.592
605.07	9.367
605.40	9.110
605.74	8.880
606.08	8.606
606.41	8.353
606.75	8.115
607.08	7.855
607.42	7.616
607.75	7.380
608.09	7.121
608.42	6.865
608.76	6.629
609.10	6.395
609.43	6.149
609.77	5.920
610.10	5.687
610.44	5.465
610.77	5.207
611.11	5.009
611.44	4.777
611.78	4.532
612.11	4.370
612.45	4.162
612.78	3.968
613.12	3.760
613.45	3.580
613.79	3.425
614.12	3.244
614.46	3.060
614.79	2.942
615.13	2.770
615.46	2.631
615.79	2.502
616.13	2.368
616.46	2.281
616.80	2.168
617.13	2.071
617.47	1.976
617.80	1.902
618.13	1.837
618.47	1.761
618.80	1.693
619.14	1.641
619.47	1.542
619.81	1.502
620.14	1.431
620.47	1.407
620.81	1.346
621.14	1.290
621.47	1.268
621.81	1.192
622.14	1.163
622.48	1.113
622.81	1.097
623.14	1.052
623.48	1.045
623.81	1.010
624.14	0.986
624.48	0.939
624.81	0.958
625.14	0.932
625.48	0.892
625.81	0.899
626.14	0.860
626.48	0.892
626.81	0.879
627.14	0.878
627.48	0.861
627.81	0.890
628.14	0.905
628.47	0.929
628.81	0.921
629.14	0.958
629.47	0.962
629.81	1.017
630.14	1.041
630.47	1.081
630.80	1.118
631.14	1.147
631.47	1.215
631.80	1.286
632.13	1.360
632.47	1.415
632.80	1.508
633.13	1.602
633.46	1.692
633.79	1.789
634.13	1.927
634.46	2.023
634.79	2.151
635.12	2.279
635.45	2.431
635.79	2.580
636.12	2.706
636.45	2.888
636.78	3.072
637.11	3.246
637.45	3.442
637.78	3.624
638.11	3.822
638.44	4.026
638.77	4.230
639.10	4.462
639.44	4.676
639.77	4.908
640.10	5.156
640.43	5.349
640.76	5.604
641.09	5.833
641.42	6.094
641.75	6.310
642.08	6.549
642.42	6.795
642.75	7.054
643.08	7.310
643.41	7.529
643.74	7.750
644.07	7.950
644.40	8.200
644.73	8.395
645.06	8.617
645.39	8.866
645.72	9.072
646.05	9.243
646.38	9.452
646.72	9.635
647.05	9.830
647.38	10.014
647.71	10.172
648.04	10.349
648.37	10.479
648.70	10.632
649.03	10.722
649.36	10.831
649.69	10.941
650.02	11.022
650.35	11.075
650.68	11.123
651.01	11.125
651.34	11.172
651.67	11.147
652.00	11.155
652.33	11.028
652.66	11.020
652.99	10.924
653.31	10.826
653.64	10.707
653.97	10.563
654.30	10.384
654.63	10.188
654.96	9.995
655.29	9.813
655.62	9.546
655.95	9.320
656.28	9.118
656.61	8.823
656.94	8.565
657.27	8.319
657.60	8.069
657.92	7.873
658.25	7.610
658.58	7.358
658.91	7.170
659.24	6.945
659.57	6.756
659.90	6.559
660.23	6.392
660.55	6.198
660.88	6.003
661.21	5.855
661.54	5.672
661.87	5.517
662.20	5.366
662.52	5.239
662.85	5.086
663.18	4.939
663.51	4.770
663.84	4.644
664.16	4.518
664.49	4.381
664.82	4.254
665.15	4.171
665.48	4.037
665.80	3.911
666.13	3.788
666.46	3.721
666.79	3.591
667.12	3.510
667.44	3.400
667.77	3.310
668.10	3.268
668.43	3.158
668.75	3.095
669.08	3.039
669.41	2.960
669.73	2.894
670.06	2.860
670.39	2.780
670.72	2.730
671.04	2.644
671.37	2.629
671.70	2.574
672.02	2.522
672.35	2.524
672.68	2.428
673.00	2.442
673.33	2.398
673.66	2.365
673.98	2.350
674.31	2.302
674.64	2.279
674.96	2.258
675.29	2.237
675.62	2.230
675.94	2.217
676.27	2.194
676.60	2.193
676.92	2.186
677.25	2.151
677.58	2.148
677.90	2.142
678.23	2.155
678.55	2.096
678.88	2.104
679.21	2.104
679.53	2.110
679.86	2.057
680.18	2.044
680.51	2.028
680.83	2.028
681.16	1.997
681.49	1.991
681.81	1.956
682.14	1.944
682.46	1.910
682.79	1.936
683.11	1.908
683.44	1.868
683.76	1.868
684.09	1.832
684.41	1.850
684.74	1.833
685.06	1.791
685.39	1.784
685.71	1.825
686.04	1.756
686.36	1.730
686.69	1.723
687.01	1.720
687.34	1.705
687.66	1.702
687.99	1.684
688.31	1.677
688.64	1.651
688.96	1.620
689.29	1.607
689.61	1.574
689.93	1.558
690.26	1.543
690.58	1.494
690.91	1.474
691.23	1.442
691.56	1.411
691.88	1.388
692.20	1.322
692.53	1.286
692.85	1.288
693.18	1.219
693.50	1.178
693.82	1.114
694.15	1.063
694.47	1.035
694.79	0.952
695.12	0.955
695.44	0.867
695.76	0.795
696.09	0.784
696.41	0.720
696.73	0.672
697.06	0.610
697.38	0.585
697.70	0.502
698.03	0.446
698.35	0.410
698.67	0.368
699.00	0.320
699.32	0.296
699.64	0.242
699.97	0.209
700.29	0.116
700.61	0.124
700.93	0.075
701.26	0.081
701.58	0.027
701.90	0.015
702.22	-0.046
702.55	-0.081
702.87	-0.091
703.19	-0.102
703.51	-0.138
703.84	-0.108
704.16	-0.151
704.48	-0.143
704.80	-0.162
705.13	-0.188
705.45	-0.194
705.77	-0.207
706.09	-0.209
706.41	-0.236
706.74	-0.242
707.06	-0.264
707.38	-0.238
707.70	-0.285
708.02	-0.305
708.34	-0.284
708.67	-0.291
708.99	-0.326
709.31	-0.308
709.63	-0.318
709.95	-0.366
710.27	-0.313
710.59	-0.327
710.92	-0.293
711.24	-0.302
711.56	-0.366
711.88	-0.343
712.20	-0.326
712.52	-0.316
712.84	-0.377
713.16	-0.353
713.48	-0.373
713.80	-0.353
714.12	-0.411
714.45	-0.383
714.77	-0.372
715.09	-0.416
715.41	-0.387
715.73	-0.415
716.05	-0.421
716.37	-0.425
716.69	-0.411
717.01	-0.445
717.33	-0.401
717.65	-0.422
717.97	-0.456
718.29	-0.475
718.61	-0.472
718.93	-0.456
719.25	-0.458
719.57	-0.451
719.89	-0.519
720.21	-0.492
720.53	-0.441
720.85	-0.524
721.17	-0.526
721.49	-0.495
721.81	-0.589
722.13	-0.511
722.45	-0.570
722.77	-0.581
723.09	-0.576
723.41	-0.620
723.72	-0.569
724.04	-0.629
724.36	-0.658
724.68	-0.635
725.00	-0.711
725.32	-0.676
725.64	-0.626
725.96	-0.727
726.28	-0.728
726.60	-0.680
726.91	-0.760
727.23	-0.743
727.55	-0.775
727.87	-0.714
728.19	-0.784
728.51	-0.734
728.83	-0.804
729.14	-0.776
729.46	-0.740
729.78	-0.719
730.10	-0.805
730.42	-0.814
730.74	-0.848
731.05	-0.818
731.37	-0.920
731.69	-0.826
732.01	-0.907
732.33	-0.876
732.64	-0.919
732.96	-0.865
733.28	-0.793
733.60	-0.886
733.92	-0.913
734.23	-0.901
734.55	-0.923
734.87	-0.849
735.19	-0.890
735.50	-0.792
735.82	-0.981
736.14	-0.890
736.45	-0.915
736.77	-0.878
737.09	-0.873
737.41	-0.926
737.72	-0.854
738.04	-0.944
738.36	-0.934
738.67	-0.911
738.99	-0.977
739.31	-0.907
739.63	-0.905
739.94	-0.883
740.26	-0.898
740.58	-0.890
740.89	-0.905
741.21	-0.847
741.52	-0.907
741.84	-0.855
742.16	-0.935
742.47	-0.855
742.79	-0.907
743.11	-0.808
743.42	-0.894
743.74	-0.778
744.05	-0.831
744.37	-0.864
744.69	-0.882
745.00	-0.758
745.32	-0.758
745.63	-0.821
745.95	-0.840
746.27	-0.844
746.58	-0.854
746.90	-0.803
747.21	-0.823
747.53	-0.765
747.84	-0.749
748.16	-0.773
748.47	-0.798
748.79	-0.785
749.10	-0.780
749.42	-0.774
749.74	-0.808
750.05	-0.745
750.37	-0.772
750.68	-0.766
751.00	-0.776
751.31	-0.703
751.62	-0.731
751.94	-0.704
752.25	-0.752
752.57	-0.735
752.88	-0.725
753.20	-0.676
753.51	-0.732
753.83	-0.688
754.14	-0.703
754.46	-0.668
754.77	-0.683
755.08	-0.686
755.40	-0.665
755.71	-0.687
756.03	-0.610
756.34	-0.672
756.66	-0.683
756.97	-0.665
757.28	-0.717
757.60	-0.643
757.91	-0.668
758.22	-0.620
758.54	-0.611
758.85	-0.658
759.17	-0.594
759.48	-0.623
759.79	-0.657
760.11	-0.674
760.42	-0.605
760.73	-0.671
761.05	-0.564
761.36	-0.659
761.67	-0.642
761.99	-0.627
762.30	-0.593
762.61	-0.656
762.92	-0.618
763.24	-0.575
763.55	-0.607
763.86	-0.580
764.18	-0.604
764.49	-0.602
764.80	-0.635
765.11	-0.624
765.43	-0.623
765.74	-0.637
766.05	-0.643
766.36	-0.600
766.68	-0.598
766.99	-0.582
767.30	-0.598
767.61	-0.643
767.93	-0.636
768.24	-0.602
768.55	-0.564
768.86	-0.590
769.17	-0.587
769.49	-0.590
769.80	-0.602
770.11	-0.557
770.42	-0.618
770.73	-0.571
771.04	-0.601
771.36	-0.557
771.67	-0.617
771.98	-0.577
772.29	-0.601
772.60	-0.629
772.91	-0.643
773.22	-0.598
773.54	-0.661
773.85	-0.587
774.16	-0.570
774.47	-0.650
774.78	-0.619
775.09	-0.633
775.40	-0.627
775.71	-0.664
776.02	-0.604
776.33	-0.661
776.64	-0.609
776.96	-0.625
777.27	-0.653
777.58	-0.648
777.89	-0.678
778.20	-0.626
778.51	-0.648
778.82	-0.650
779.13	-0.696
779.44	-0.662
779.75	-0.738
780.06	-0.713
780.37	-0.687
780.68	-0.699
780.99	-0.741
781.30	-0.700
781.61	-0.664
781.92	-0.748
782.23	-0.655
782.54	-0.773
782.85	-0.726
783.16	-0.780
783.47	-0.764
783.78	-0.732
784.08	-0.702
784.39	-0.742
784.70	-0.815
785.01	-0.786
785.32	-0.772
785.63	-0.799
785.94	-0.779
786.25	-0.805
786.56	-0.802
786.87	-0.810
787.18	-0.909
787.48	-0.796
787.79	-0.927
788.10	-0.917
788.41	-0.925
788.72	-0.872
789.03	-0.946
789.34	-0.962
789.64	-0.911
789.95	-0.897
790.26	-0.858
790.57	-0.931
790.88	-0.865
791.19	-1.022
791.49	-0.898
791.80	-0.966
792.11	-0.926
792.42	-0.990
792.73	-1.007
793.03	-0.918
793.34	-1.014
793.65	-1.033
793.96	-0.949
794.27	-1.040
794.57	-1.050
794.88	-1.091
795.19	-1.068
795.50	-0.984
795.80	-1.135
796.11	-1.155
796.42	-1.076
796.72	-1.177
797.03	-1.132
797.34	-1.119
797.65	-1.173
797.95	-1.161
798.26	-1.152
798.57	-1.285
798.87	-1.216
799.18	-1.227
799.49	-1.297
799.79	-1.259
800.10	-1.238
800.41	-1.319
800.71	-1.321
801.02	-1.325
801.33	-1.275
801.63	-1.326
801.94	-1.337
802.24	-1.433
802.55	-1.434
802.86	-1.319
803.16	-1.391
803.47	-1.497
803.77	-1.462
804.08	-1.501
804.39	-1.401
804.69	-1.443
805.00	-1.412
805.30	-1.397
805.61	-1.432
805.91	-1.529
806.22	-1.537
806.53	-1.548
806.83	-1.604
807.14	-1.436
807.44	-1.654
807.75	-1.621
808.05	-1.546
808.36	-1.649
808.66	-1.767
808.97	-1.786
809.27	-1.638
809.58	-1.700
809.88	-1.688
810.19	-1.708
810.49	-1.789
810.80	-1.738
811.10	-1.679
811.41	-1.820
811.71	-2.000
812.01	-1.847
812.32	-1.965
812.62	-1.872
812.93	-1.964
813.23	-1.859
813.54	-1.930
813.84	-1.842
814.14	-2.111
814.45	-2.054
814.75	-2.220
815.06	-2.159
815.36	-2.053
815.66	-2.127
815.97	-2.422
816.27	-2.280
816.58	-2.223
816.88	-2.368
817.18	-2.377
817.49	-2.387
817.79	-2.291
818.09	-2.238
818.40	-2.562
818.70	-2.495
819.00	-2.496
819.31	-2.558
819.61	-2.581
819.91	-2.621
820.21	-2.562
820.52	-2.670
820.82	-2.556
821.12	-2.681
821.43	-2.857
821.73	-2.943
822.03	-2.836
822.33	-3.221
822.64	-2.831
822.94	-3.133
823.24	-2.936
823.54	-3.084
823.85	-3.236
824.15	-2.927
824.45	-3.302
824.75	-3.324
825.05	-3.288
825.36	-3.500
825.66	-3.298
825.96	-3.456
826.26	-3.768
826.56	-4.000
826.87	-3.576
827.17	-3.704
827.47	-3.737
827.77	-3.666
828.07	-3.947
828.37	-3.870
828.67	-4.052
828.98	-3.983
829.28	-3.826
829.58	-4.572
829.88	-3.958
830.18	-4.575
830.48	-4.404
830.78	-4.660
831.08	-4.690
831.38	-4.495
831.69	-4.891
831.99	-4.669
832.29	-5.484
832.59	-5.263
832.89	-5.274
833.19	-4.927
833.49	-5.461
833.79	-5.785
834.09	-5.370
834.39	-5.651
834.69	-5.940
834.99	-6.402
835.29	-6.536
835.59	-5.993
835.89	-6.613
836.19	-6.368
836.49	-6.379
836.79	-7.185
837.09	-7.303
837.39	-6.794
837.69	-6.945
837.99	-7.404
838.29	-7.608
838.59	-7.816
838.89	-8.110
839.19	-8.401
839.49	-7.376
839.79	-8.193
840.09	-8.563
840.39	-9.298
840.68	-8.804
840.98	-9.305
841.28	-9.815
841.58	-9.514
841.88	-10.214
842.18	-9.743
842.48	-9.962
842.78	-10.467
843.08	-11.580
843.37	-10.403
843.67	-10.853
843.97	-11.040
844.27	-12.033
844.57	-12.077
844.87	-13.051
845.16	-13.026
845.46	-12.994
845.76	-13.100
846.06	-13.701
846.36	-13.838
846.66	-13.377
846.95	-14.298
847.25	-14.124
847.55	-17.572
847.85	-14.491
848.14	-15.961
848.44	-15.244
848.74	-18.104
849.04	-17.219
849.33	-19.323
849.63	-18.798
849.93	-18.242
850.23	-21.010
850.52	-18.631
850.82	-20.924
851.12	-22.802
851.42	-20.344
851.71	-21.208
852.01	-23.743
852.31	-22.678
852.60	-21.227
852.90	-23.971
853.20	-23.342
853.49	-24.003
853.79	-23.782
854.09	-25.327
854.38	-24.969
854.68	-26.519
854.98	-26.550
855.27	-28.228
855.57	-31.013
855.86	-28.102
856.16	-28.891
856.46	-28.548
856.75	-29.476
857.05	-30.517
857.34	-28.702
857.64	-28.940
857.94	-26.838
858.23	-30.075
858.53	-29.222
858.82	-31.101
859.12	-29.286
859.41	-30.638
859.71	-33.333
860.01	-31.167
860.30	-28.734
860.60	-35.068
860.89	-31.532
861.19	-32.131
861.48	-31.420
861.78	-31.184
862.07	-30.091
862.37	-29.701
862.66	-33.063
862.96	-31.891
863.25	-33.049
863.55	-33.481
863.84	-30.881
864.13	-32.886
864.43	-29.753
864.72	-31.886
865.02	-28.391
865.31	-32.982
865.61	-31.686
865.90	-29.770
866.19	-28.886
866.49	-33.208
866.78	-31.095
867.08	-33.666
867.37	-33.118
867.66	-32.130
867.96	-31.805
868.25	-33.434
868.55	-29.892
868.84	-28.259
869.13	-33.487
869.43	-30.711
869.72	-34.847
870.01	-34.721
870.31	-31.992
870.60	-32.253
870.89	-30.690
871.19	-31.832
871.48	-31.462
871.77	-33.046
872.07	-32.525
872.36	-35.793
872.65	-31.181
872.94	-31.557
873.24	-30.475
873.53	-35.370
873.82	-32.740
874.11	-32.920
874.41	-34.256
874.70	-33.333
>>>>>End Processed Spectral Data<<<<<
