SpectraSuite Data File
++++++++++++++++++++++++++++++++++++
Date: Tue Apr 28 18:55:07 BST 2015
User: mpfc3
Dark Spectrum Present: Yes
Reference Spectrum Present: Yes
Number of Sampled Component Spectra: 1
Spectrometers: USB2E3636
Integration Time (usec): 30000 (USB2E3636)
Spectra Averaged: 100 (USB2E3636)
Boxcar Smoothing: 0 (USB2E3636)
Correct for Electrical Dark: No (USB2E3636)
Strobe/Lamp Enabled: No (USB2E3636)
Correct for Detector Non-linearity: No (USB2E3636)
Correct for Stray Light: No (USB2E3636)
Number of Pixels in Processed Spectrum: 2048
>>>>>Begin Processed Spectral Data<<<<<
180.28	0.000
180.65	169.070
181.02	172.793
181.39	186.402
181.77	183.101
182.14	194.692
182.51	186.465
182.88	179.536
183.25	183.061
183.63	174.689
184.00	216.145
184.37	187.872
184.74	167.063
185.11	196.861
185.49	194.492
185.86	181.818
186.23	205.543
186.60	207.783
186.97	175.096
187.35	197.868
187.72	196.868
188.09	187.640
188.46	201.271
188.83	193.827
189.20	-825.263
189.58	-45.765
189.95	-53.389
190.32	-49.451
190.69	-52.014
191.06	-52.846
191.43	-52.613
191.81	-55.259
192.18	-52.757
192.55	-48.621
192.92	-53.863
193.29	-47.823
193.66	-53.493
194.03	-47.989
194.41	-50.071
194.78	-51.214
195.15	-49.797
195.52	-47.199
195.89	-50.512
196.26	-50.779
196.63	-55.125
197.01	-45.399
197.38	-51.050
197.75	-51.225
198.12	-55.196
198.49	-48.789
198.86	-51.572
199.23	-50.387
199.60	-59.705
199.98	-54.020
200.35	-59.794
200.72	-52.784
201.09	-53.873
201.46	-55.175
201.83	-58.580
202.20	-51.143
202.57	-54.986
202.94	-48.256
203.31	-50.000
203.69	-49.345
204.06	-51.342
204.43	-50.489
204.80	-52.628
205.17	-52.048
205.54	-54.026
205.91	-46.610
206.28	-53.618
206.65	-50.651
207.02	-59.342
207.39	-62.785
207.76	-54.256
208.14	-55.603
208.51	-49.963
208.88	-55.496
209.25	-54.088
209.62	-51.794
209.99	-53.518
210.36	-55.991
210.73	-49.369
211.10	-55.495
211.47	-56.816
211.84	-62.418
212.21	-58.378
212.58	-56.782
212.95	-53.256
213.32	-56.469
213.69	-62.712
214.06	-50.663
214.43	-56.744
214.80	-51.497
215.17	-52.820
215.55	-57.601
215.92	-55.564
216.29	-58.202
216.66	-63.419
217.03	-53.978
217.40	-60.922
217.77	-59.262
218.14	-59.106
218.51	-63.466
218.88	-53.695
219.25	-59.631
219.62	-60.840
219.99	-59.451
220.36	-54.808
220.73	-55.949
221.10	-58.134
221.47	-59.627
221.84	-62.437
222.21	-67.926
222.58	-61.643
222.95	-61.692
223.32	-65.981
223.69	-63.566
224.06	-68.213
224.43	-63.029
224.80	-69.780
225.17	-66.135
225.54	-63.218
225.91	-59.610
226.27	-52.134
226.64	-68.295
227.01	-70.072
227.38	-58.348
227.75	-65.972
228.12	-68.627
228.49	-71.661
228.86	-67.596
229.23	-64.395
229.60	-70.363
229.97	-66.274
230.34	-68.789
230.71	-65.445
231.08	-76.863
231.45	-71.863
231.82	-67.925
232.19	-71.415
232.56	-63.820
232.93	-68.160
233.30	-61.930
233.66	-77.988
234.03	-66.452
234.40	-68.767
234.77	-75.729
235.14	-82.596
235.51	-72.176
235.88	-70.000
236.25	-78.764
236.62	-75.895
236.99	-78.398
237.36	-76.094
237.73	-74.952
238.09	-69.763
238.46	-84.927
238.83	-80.797
239.20	-68.136
239.57	-78.395
239.94	-78.536
240.31	-78.162
240.68	-68.493
241.05	-77.204
241.41	-68.972
241.78	-73.606
242.15	-78.212
242.52	-77.800
242.89	-80.905
243.26	-82.469
243.63	-76.383
244.00	-81.965
244.36	-81.571
244.73	-85.627
245.10	-77.015
245.47	-78.801
245.84	-80.765
246.21	-75.537
246.58	-77.355
246.94	-74.873
247.31	-78.429
247.68	-74.489
248.05	-75.911
248.42	-77.732
248.79	-85.369
249.15	-83.678
249.52	-72.933
249.89	-78.075
250.26	-71.884
250.63	-87.174
251.00	-75.828
251.36	-89.590
251.73	-79.835
252.10	-84.046
252.47	-75.026
252.84	-92.907
253.20	-89.576
253.57	-90.671
253.94	-86.504
254.31	-67.581
254.68	-68.718
255.05	-81.888
255.41	-87.585
255.78	-82.870
256.15	-89.274
256.52	-83.333
256.88	-78.060
257.25	-87.020
257.62	-93.727
257.99	-96.318
258.36	-106.369
258.72	-86.431
259.09	-81.257
259.46	-102.828
259.83	-90.811
260.19	-84.641
260.56	-91.704
260.93	-82.475
261.30	-96.372
261.67	-91.059
262.03	-83.057
262.40	-91.487
262.77	-92.326
263.14	-81.890
263.50	-87.571
263.87	-91.487
264.24	-81.105
264.61	-93.249
264.97	-91.459
265.34	-77.409
265.71	-84.930
266.07	-94.431
266.44	-84.153
266.81	-93.333
267.18	-90.679
267.54	-85.816
267.91	-88.641
268.28	-84.761
268.64	-99.756
269.01	-87.872
269.38	-86.852
269.75	-94.174
270.11	-100.497
270.48	-102.886
270.85	-87.600
271.21	-88.994
271.58	-94.686
271.95	-85.155
272.32	-95.157
272.68	-94.982
273.05	-82.916
273.42	-97.634
273.78	-95.707
274.15	-94.975
274.52	-82.103
274.88	-90.621
275.25	-79.354
275.62	-95.366
275.98	-87.294
276.35	-96.695
276.72	-88.193
277.08	-95.181
277.45	-89.937
277.82	-99.871
278.18	-97.430
278.55	-102.638
278.92	-89.186
279.28	-93.040
279.65	-82.048
280.01	-92.197
280.38	-93.032
280.75	-100.378
281.11	-86.746
281.48	-85.748
281.85	-87.950
282.21	-103.175
282.58	-93.262
282.95	-77.500
283.31	-103.367
283.68	-90.000
284.04	-80.739
284.41	-101.018
284.78	-82.580
285.14	-93.252
285.51	-75.366
285.87	-106.339
286.24	-90.399
286.61	-93.483
286.97	-89.245
287.34	-86.914
287.70	-86.203
288.07	-89.747
288.44	-73.333
288.80	-85.146
289.17	-87.277
289.53	-90.550
289.90	-91.605
290.26	-96.163
290.63	-87.654
291.00	-106.727
291.36	-94.052
291.73	-95.503
292.09	-93.078
292.46	-98.469
292.82	-76.022
293.19	-90.000
293.56	-88.548
293.92	-79.478
294.29	-90.482
294.65	-87.383
295.02	-78.750
295.38	-78.857
295.75	-82.890
296.11	-96.654
296.48	-85.749
296.84	-81.099
297.21	-75.761
297.57	-95.169
297.94	-92.866
298.30	-91.152
298.67	-86.874
299.04	-82.230
299.40	-84.109
299.77	-87.875
300.13	-78.507
300.50	-82.751
300.86	-99.398
301.23	-79.283
301.59	-79.153
301.96	-76.837
302.32	-84.735
302.69	-97.239
303.05	-79.571
303.42	-89.100
303.78	-85.747
304.14	-75.948
304.51	-78.346
304.87	-74.155
305.24	-84.282
305.60	-72.689
305.97	-77.459
306.33	-79.514
306.70	-68.266
307.06	-79.936
307.43	-77.545
307.79	-75.544
308.16	-72.698
308.52	-77.172
308.88	-73.434
309.25	-83.631
309.61	-73.814
309.98	-83.548
310.34	-86.740
310.71	-76.110
311.07	-72.783
311.44	-71.937
311.80	-75.209
312.16	-66.699
312.53	-73.554
312.89	-71.918
313.26	-67.498
313.62	-60.419
313.98	-66.859
314.35	-75.439
314.71	-60.351
315.08	-66.603
315.44	-58.699
315.80	-64.925
316.17	-65.169
316.53	-56.991
316.90	-64.850
317.26	-63.063
317.62	-65.762
317.99	-71.646
318.35	-67.126
318.72	-64.173
319.08	-65.347
319.44	-65.887
319.81	-65.597
320.17	-57.483
320.53	-53.846
320.90	-57.555
321.26	-67.146
321.62	-59.391
321.99	-56.096
322.35	-58.403
322.72	-60.236
323.08	-56.890
323.44	-59.274
323.81	-49.069
324.17	-64.256
324.53	-50.192
324.90	-53.989
325.26	-54.471
325.62	-58.238
325.99	-52.435
326.35	-51.758
326.71	-53.435
327.08	-50.547
327.44	-49.595
327.80	-46.689
328.16	-38.776
328.53	-56.440
328.89	-46.227
329.25	-46.559
329.62	-39.477
329.98	-37.027
330.34	-44.385
330.71	-41.198
331.07	-49.060
331.43	-41.423
331.79	-34.120
332.16	-36.437
332.52	-38.084
332.88	-35.565
333.24	-36.279
333.61	-36.132
333.97	-35.786
334.33	-38.201
334.70	-32.789
335.06	-37.900
335.42	-34.995
335.78	-32.727
336.15	-35.411
336.51	-29.520
336.87	-34.366
337.23	-32.395
337.60	-32.633
337.96	-32.274
338.32	-30.927
338.68	-27.462
339.04	-30.678
339.41	-29.043
339.77	-26.979
340.13	-26.096
340.49	-23.518
340.86	-28.024
341.22	-27.811
341.58	-29.773
341.94	-26.534
342.30	-25.687
342.67	-25.514
343.03	-23.490
343.39	-23.007
343.75	-22.861
344.11	-23.588
344.48	-24.641
344.84	-23.405
345.20	-23.743
345.56	-21.711
345.92	-21.181
346.28	-20.398
346.65	-19.968
347.01	-20.316
347.37	-22.603
347.73	-22.432
348.09	-21.580
348.45	-19.785
348.82	-19.252
349.18	-21.489
349.54	-21.036
349.90	-18.966
350.26	-18.943
350.62	-16.364
350.98	-15.575
351.35	-17.747
351.71	-17.009
352.07	-14.672
352.43	-17.441
352.79	-15.774
353.15	-16.041
353.51	-17.685
353.87	-14.269
354.24	-14.468
354.60	-15.646
354.96	-14.453
355.32	-13.722
355.68	-14.015
356.04	-13.966
356.40	-12.164
356.76	-13.910
357.12	-12.641
357.48	-14.232
357.85	-14.589
358.21	-14.855
358.57	-11.654
358.93	-12.828
359.29	-13.388
359.65	-13.590
360.01	-13.083
360.37	-11.505
360.73	-12.866
361.09	-12.263
361.45	-10.661
361.81	-11.068
362.17	-9.962
362.53	-11.098
362.89	-9.820
363.25	-10.769
363.62	-9.927
363.98	-10.325
364.34	-9.331
364.70	-9.733
365.06	-9.420
365.42	-9.992
365.78	-9.360
366.14	-9.611
366.50	-9.210
366.86	-8.214
367.22	-9.469
367.58	-8.244
367.94	-9.578
368.30	-8.745
368.66	-7.825
369.02	-8.621
369.38	-7.338
369.74	-7.611
370.10	-7.219
370.46	-8.089
370.82	-7.613
371.18	-7.732
371.54	-6.836
371.90	-8.164
372.26	-6.501
372.62	-6.447
372.98	-7.222
373.33	-6.832
373.69	-6.091
374.05	-6.703
374.41	-7.308
374.77	-6.258
375.13	-5.409
375.49	-4.758
375.85	-5.224
376.21	-5.923
376.57	-5.572
376.93	-5.443
377.29	-5.618
377.65	-5.199
378.01	-5.328
378.37	-5.524
378.73	-4.373
379.08	-4.664
379.44	-5.120
379.80	-4.407
380.16	-4.962
380.52	-4.428
380.88	-4.518
381.24	-4.482
381.60	-4.109
381.96	-3.521
382.32	-3.497
382.67	-3.524
383.03	-3.265
383.39	-2.822
383.75	-3.467
384.11	-3.032
384.47	-2.649
384.83	-2.758
385.19	-2.362
385.54	-2.474
385.90	-2.168
386.26	-2.601
386.62	-2.287
386.98	-2.506
387.34	-1.993
387.70	-1.402
388.05	-1.935
388.41	-1.457
388.77	-1.589
389.13	-0.923
389.49	-0.780
389.85	-0.805
390.20	-0.470
390.56	-0.341
390.92	-0.234
391.28	-0.068
391.64	-0.232
391.99	0.013
392.35	-0.264
392.71	0.563
393.07	0.493
393.43	0.288
393.78	1.067
394.14	1.035
394.50	0.758
394.86	1.068
395.22	1.356
395.57	1.493
395.93	1.799
396.29	1.840
396.65	2.001
397.00	2.354
397.36	2.210
397.72	2.007
398.08	2.825
398.43	3.050
398.79	2.907
399.15	3.166
399.51	3.227
399.86	3.127
400.22	3.517
400.58	3.543
400.94	3.818
401.29	3.841
401.65	4.354
402.01	4.557
402.37	4.621
402.72	4.647
403.08	4.582
403.44	4.923
403.79	5.114
404.15	5.157
404.51	5.026
404.86	5.224
405.22	5.460
405.58	5.667
405.94	5.967
406.29	6.050
406.65	6.481
407.01	6.165
407.36	6.274
407.72	6.729
408.08	6.455
408.43	6.738
408.79	6.713
409.15	7.248
409.50	7.218
409.86	7.085
410.22	7.587
410.57	7.680
410.93	7.462
411.29	7.960
411.64	8.159
412.00	8.368
412.35	8.617
412.71	8.226
413.07	8.570
413.42	8.949
413.78	8.941
414.14	8.957
414.49	8.972
414.85	9.337
415.20	9.486
415.56	9.567
415.92	9.999
416.27	9.899
416.63	10.291
416.98	10.231
417.34	10.517
417.70	10.330
418.05	10.592
418.41	10.507
418.76	10.951
419.12	10.943
419.47	11.267
419.83	11.243
420.19	11.638
420.54	11.483
420.90	11.521
421.25	11.925
421.61	12.028
421.96	12.026
422.32	12.179
422.67	12.365
423.03	12.481
423.39	12.530
423.74	12.628
424.10	12.806
424.45	12.977
424.81	13.260
425.16	13.151
425.52	13.491
425.87	13.454
426.23	13.523
426.58	13.623
426.94	13.820
427.29	14.261
427.65	14.169
428.00	14.358
428.36	14.385
428.71	14.532
429.07	14.758
429.42	14.699
429.78	14.689
430.13	15.007
430.49	15.202
430.84	15.182
431.19	15.252
431.55	15.414
431.90	15.666
432.26	15.592
432.61	15.780
432.97	15.815
433.32	16.280
433.68	16.326
434.03	16.336
434.39	16.459
434.74	16.640
435.09	16.600
435.45	16.829
435.80	16.897
436.16	17.082
436.51	17.129
436.86	17.205
437.22	17.254
437.57	17.569
437.93	17.608
438.28	17.707
438.63	17.846
438.99	17.916
439.34	17.890
439.70	17.976
440.05	18.327
440.40	18.418
440.76	18.422
441.11	18.717
441.47	18.590
441.82	18.679
442.17	18.803
442.53	19.004
442.88	19.114
443.23	19.227
443.59	19.249
443.94	19.441
444.29	19.503
444.65	19.636
445.00	19.788
445.35	19.748
445.71	19.910
446.06	20.112
446.41	20.036
446.77	20.180
447.12	20.255
447.47	20.440
447.83	20.405
448.18	20.616
448.53	20.578
448.89	20.859
449.24	20.828
449.59	20.999
449.94	20.973
450.30	21.188
450.65	21.166
451.00	21.457
451.36	21.492
451.71	21.533
452.06	21.699
452.41	21.595
452.77	21.869
453.12	22.065
453.47	22.017
453.82	22.086
454.18	22.356
454.53	22.347
454.88	22.521
455.23	22.579
455.59	22.621
455.94	22.680
456.29	22.994
456.64	22.855
457.00	23.191
457.35	23.308
457.70	23.259
458.05	23.403
458.40	23.516
458.76	23.635
459.11	23.752
459.46	23.687
459.81	23.864
460.16	24.064
460.52	24.113
460.87	24.297
461.22	24.266
461.57	24.312
461.92	24.449
462.28	24.508
462.63	24.626
462.98	24.722
463.33	24.860
463.68	24.873
464.03	25.068
464.38	25.069
464.74	25.155
465.09	25.262
465.44	25.296
465.79	25.483
466.14	25.607
466.49	25.542
466.84	25.752
467.20	25.731
467.55	25.920
467.90	25.896
468.25	25.992
468.60	26.137
468.95	26.279
469.30	26.126
469.65	26.282
470.00	26.306
470.36	26.518
470.71	26.537
471.06	26.638
471.41	26.562
471.76	26.707
472.11	26.804
472.46	26.846
472.81	26.792
473.16	26.979
473.51	26.964
473.86	26.957
474.21	27.023
474.56	27.168
474.91	27.095
475.26	27.057
475.62	27.198
475.97	27.137
476.32	27.249
476.67	27.267
477.02	27.244
477.37	27.267
477.72	27.295
478.07	27.352
478.42	27.174
478.77	27.361
479.12	27.272
479.47	27.282
479.82	27.335
480.17	27.365
480.52	27.323
480.87	27.369
481.22	27.463
481.57	27.345
481.92	27.355
482.27	27.321
482.62	27.383
482.97	27.447
483.32	27.382
483.67	27.365
484.02	27.475
484.36	27.449
484.71	27.462
485.06	27.482
485.41	27.506
485.76	27.485
486.11	27.530
486.46	27.567
486.81	27.614
487.16	27.727
487.51	27.732
487.86	27.821
488.21	27.852
488.56	27.897
488.91	27.974
489.25	28.052
489.60	28.148
489.95	28.153
490.30	28.269
490.65	28.270
491.00	28.378
491.35	28.436
491.70	28.489
492.05	28.523
492.39	28.638
492.74	28.631
493.09	28.834
493.44	28.830
493.79	28.960
494.14	29.062
494.49	28.991
494.83	29.155
495.18	29.258
495.53	29.235
495.88	29.407
496.23	29.519
496.58	29.631
496.92	29.671
497.27	29.847
497.62	29.817
497.97	29.917
498.32	30.041
498.67	30.033
499.01	30.116
499.36	30.152
499.71	30.313
500.06	30.331
500.41	30.448
500.75	30.487
501.10	30.567
501.45	30.685
501.80	30.669
502.14	30.795
502.49	30.748
502.84	30.814
503.19	30.903
503.53	30.968
503.88	30.949
504.23	31.071
504.58	31.034
504.92	31.184
505.27	31.234
505.62	31.240
505.97	31.319
506.31	31.301
506.66	31.389
507.01	31.405
507.36	31.329
507.70	31.399
508.05	31.309
508.40	31.376
508.74	31.342
509.09	31.437
509.44	31.320
509.79	31.262
510.13	31.252
510.48	31.347
510.83	31.229
511.17	31.256
511.52	31.184
511.87	31.202
512.21	31.109
512.56	31.149
512.91	31.217
513.25	31.185
513.60	31.176
513.95	31.299
514.29	31.325
514.64	31.335
514.98	31.395
515.33	31.418
515.68	31.502
516.02	31.531
516.37	31.470
516.72	31.501
517.06	31.569
517.41	31.642
517.75	31.637
518.10	31.718
518.45	31.739
518.79	31.757
519.14	31.748
519.48	31.791
519.83	31.834
520.18	31.796
520.52	31.770
520.87	31.872
521.21	31.870
521.56	31.880
521.90	31.856
522.25	31.842
522.60	31.858
522.94	31.894
523.29	31.960
523.63	31.871
523.98	31.817
524.32	31.935
524.67	31.778
525.01	31.785
525.36	31.730
525.70	31.689
526.05	31.732
526.39	31.610
526.74	31.601
527.08	31.577
527.43	31.465
527.77	31.358
528.12	31.363
528.46	31.313
528.81	31.121
529.15	31.168
529.50	31.054
529.84	30.925
530.19	30.834
530.53	30.684
530.88	30.596
531.22	30.396
531.57	30.375
531.91	30.193
532.26	30.069
532.60	29.935
532.94	29.791
533.29	29.605
533.63	29.479
533.98	29.219
534.32	29.139
534.67	28.873
535.01	28.681
535.35	28.468
535.70	28.255
536.04	28.080
536.39	27.861
536.73	27.591
537.07	27.351
537.42	27.177
537.76	26.970
538.11	26.729
538.45	26.509
538.79	26.243
539.14	26.022
539.48	25.859
539.82	25.670
540.17	25.481
540.51	25.280
540.85	25.104
541.20	24.874
541.54	24.731
541.89	24.582
542.23	24.447
542.57	24.319
542.92	24.129
543.26	24.068
543.60	23.959
543.94	23.923
544.29	23.793
544.63	23.775
544.97	23.775
545.32	23.683
545.66	23.621
546.00	23.709
546.35	23.605
546.69	23.598
547.03	23.650
547.37	23.600
547.72	23.631
548.06	23.713
548.40	23.722
548.75	23.776
549.09	23.849
549.43	23.889
549.77	23.945
550.12	24.000
550.46	24.112
550.80	24.306
551.14	24.321
551.49	24.388
551.83	24.573
552.17	24.697
552.51	24.858
552.85	24.993
553.20	25.133
553.54	25.355
553.88	25.531
554.22	25.705
554.56	25.958
554.91	26.168
555.25	26.391
555.59	26.607
555.93	26.813
556.27	26.997
556.62	27.239
556.96	27.555
557.30	27.749
557.64	27.969
557.98	28.321
558.32	28.531
558.67	28.807
559.01	29.063
559.35	29.260
559.69	29.480
560.03	29.741
560.37	30.011
560.71	30.201
561.05	30.447
561.40	30.665
561.74	30.874
562.08	31.128
562.42	31.323
562.76	31.598
563.10	31.759
563.44	31.975
563.78	32.127
564.12	32.307
564.46	32.467
564.81	32.579
565.15	32.769
565.49	32.857
565.83	32.957
566.17	33.029
566.51	33.198
566.85	33.292
567.19	33.352
567.53	33.469
567.87	33.584
568.21	33.495
568.55	33.583
568.89	33.588
569.23	33.729
569.57	33.677
569.91	33.672
570.25	33.695
570.59	33.683
570.93	33.686
571.27	33.644
571.61	33.612
571.95	33.539
572.29	33.490
572.63	33.409
572.97	33.418
573.31	33.289
573.65	33.227
573.99	33.118
574.33	32.998
574.67	32.907
575.01	32.831
575.35	32.718
575.69	32.590
576.03	32.510
576.37	32.363
576.71	32.237
577.05	32.080
577.39	31.972
577.73	31.752
578.06	31.584
578.40	31.478
578.74	31.275
579.08	31.109
579.42	30.935
579.76	30.712
580.10	30.538
580.44	30.323
580.78	30.180
581.12	29.914
581.45	29.790
581.79	29.533
582.13	29.360
582.47	29.149
582.81	28.987
583.15	28.763
583.49	28.663
583.83	28.444
584.16	28.291
584.50	28.057
584.84	27.997
585.18	27.825
585.52	27.667
585.86	27.472
586.19	27.326
586.53	27.172
586.87	27.038
587.21	26.855
587.55	26.664
587.88	26.636
588.22	26.345
588.56	26.206
588.90	25.957
589.24	25.786
589.57	25.595
589.91	25.367
590.25	25.121
590.59	24.942
590.92	24.695
591.26	24.500
591.60	24.239
591.94	24.028
592.27	23.772
592.61	23.526
592.95	23.212
593.29	22.962
593.62	22.658
593.96	22.299
594.30	22.046
594.64	21.710
594.97	21.394
595.31	20.998
595.65	20.655
595.98	20.267
596.32	19.820
596.66	19.376
597.00	18.943
597.33	18.570
597.67	18.077
598.01	17.598
598.34	17.174
598.68	16.728
599.02	16.210
599.35	15.770
599.69	15.399
600.03	14.991
600.36	14.622
600.70	14.225
601.03	13.878
601.37	13.616
601.71	13.316
602.04	12.983
602.38	12.713
602.72	12.445
603.05	12.157
603.39	11.911
603.72	11.636
604.06	11.387
604.40	11.104
604.73	10.810
605.07	10.551
605.40	10.227
605.74	10.008
606.08	9.708
606.41	9.465
606.75	9.170
607.08	8.811
607.42	8.608
607.75	8.294
608.09	8.056
608.42	7.788
608.76	7.460
609.10	7.178
609.43	6.901
609.77	6.653
610.10	6.355
610.44	6.121
610.77	5.902
611.11	5.623
611.44	5.373
611.78	5.124
612.11	4.901
612.45	4.674
612.78	4.437
613.12	4.250
613.45	4.044
613.79	3.844
614.12	3.664
614.46	3.497
614.79	3.272
615.13	3.144
615.46	2.990
615.79	2.813
616.13	2.691
616.46	2.558
616.80	2.456
617.13	2.336
617.47	2.252
617.80	2.157
618.13	2.090
618.47	1.956
618.80	1.877
619.14	1.841
619.47	1.775
619.81	1.689
620.14	1.607
620.47	1.559
620.81	1.491
621.14	1.463
621.47	1.427
621.81	1.343
622.14	1.332
622.48	1.277
622.81	1.231
623.14	1.207
623.48	1.169
623.81	1.129
624.14	1.089
624.48	1.071
624.81	1.050
625.14	1.061
625.48	1.032
625.81	1.009
626.14	1.011
626.48	0.998
626.81	1.008
627.14	1.012
627.48	1.005
627.81	1.024
628.14	1.008
628.47	1.043
628.81	1.066
629.14	1.099
629.47	1.110
629.81	1.162
630.14	1.217
630.47	1.219
630.80	1.302
631.14	1.322
631.47	1.420
631.80	1.475
632.13	1.575
632.47	1.666
632.80	1.745
633.13	1.838
633.46	1.952
633.79	2.081
634.13	2.174
634.46	2.316
634.79	2.463
635.12	2.602
635.45	2.742
635.79	2.941
636.12	3.115
636.45	3.311
636.78	3.486
637.11	3.715
637.45	3.899
637.78	4.123
638.11	4.366
638.44	4.599
638.77	4.855
639.10	5.076
639.44	5.309
639.77	5.597
640.10	5.858
640.43	6.148
640.76	6.406
641.09	6.681
641.42	6.951
641.75	7.206
642.08	7.492
642.42	7.754
642.75	8.045
643.08	8.280
643.41	8.571
643.74	8.806
644.07	9.089
644.40	9.330
644.73	9.565
645.06	9.876
645.39	10.078
645.72	10.304
646.05	10.535
646.38	10.770
646.72	11.000
647.05	11.169
647.38	11.380
647.71	11.596
648.04	11.742
648.37	11.906
648.70	12.105
649.03	12.185
649.36	12.317
649.69	12.412
650.02	12.518
650.35	12.576
650.68	12.630
651.01	12.661
651.34	12.635
651.67	12.645
652.00	12.652
652.33	12.583
652.66	12.508
652.99	12.381
653.31	12.292
653.64	12.147
653.97	11.957
654.30	11.737
654.63	11.599
654.96	11.320
655.29	11.107
655.62	10.799
655.95	10.559
656.28	10.267
656.61	10.000
656.94	9.736
657.27	9.452
657.60	9.168
657.92	8.896
658.25	8.612
658.58	8.336
658.91	8.078
659.24	7.895
659.57	7.694
659.90	7.424
660.23	7.238
660.55	7.017
660.88	6.848
661.21	6.664
661.54	6.433
661.87	6.263
662.20	6.103
662.52	5.918
662.85	5.770
663.18	5.558
663.51	5.445
663.84	5.280
664.16	5.128
664.49	4.985
664.82	4.851
665.15	4.726
665.48	4.584
665.80	4.456
666.13	4.296
666.46	4.229
666.79	4.075
667.12	3.990
667.44	3.855
667.77	3.797
668.10	3.699
668.43	3.606
668.75	3.537
669.08	3.440
669.41	3.391
669.73	3.296
670.06	3.227
670.39	3.152
670.72	3.108
671.04	3.044
671.37	2.987
671.70	2.937
672.02	2.886
672.35	2.839
672.68	2.790
673.00	2.786
673.33	2.749
673.66	2.706
673.98	2.654
674.31	2.622
674.64	2.636
674.96	2.577
675.29	2.601
675.62	2.546
675.94	2.525
676.27	2.505
676.60	2.502
676.92	2.493
677.25	2.469
677.58	2.460
677.90	2.476
678.23	2.469
678.55	2.425
678.88	2.421
679.21	2.407
679.53	2.417
679.86	2.375
680.18	2.350
680.51	2.341
680.83	2.322
681.16	2.286
681.49	2.286
681.81	2.262
682.14	2.240
682.46	2.225
682.79	2.220
683.11	2.204
683.44	2.183
683.76	2.114
684.09	2.100
684.41	2.094
684.74	2.083
685.06	2.076
685.39	2.039
685.71	2.066
686.04	1.980
686.36	1.987
686.69	1.990
687.01	1.984
687.34	1.979
687.66	1.984
687.99	1.915
688.31	1.930
688.64	1.890
688.96	1.873
689.29	1.855
689.61	1.799
689.93	1.774
690.26	1.771
690.58	1.730
690.91	1.705
691.23	1.688
691.56	1.614
691.88	1.567
692.20	1.534
692.53	1.449
692.85	1.433
693.18	1.401
693.50	1.345
693.82	1.292
694.15	1.237
694.47	1.160
694.79	1.123
695.12	1.063
695.44	1.023
695.76	0.943
696.09	0.878
696.41	0.829
696.73	0.781
697.06	0.739
697.38	0.667
697.70	0.588
698.03	0.543
698.35	0.466
698.67	0.455
699.00	0.356
699.32	0.292
699.64	0.291
699.97	0.226
700.29	0.183
700.61	0.139
700.93	0.072
701.26	0.088
701.58	0.021
701.90	0.007
702.22	-0.071
702.55	-0.083
702.87	-0.087
703.19	-0.121
703.51	-0.147
703.84	-0.149
704.16	-0.154
704.48	-0.170
704.80	-0.194
705.13	-0.224
705.45	-0.205
705.77	-0.228
706.09	-0.263
706.41	-0.255
706.74	-0.256
707.06	-0.308
707.38	-0.283
707.70	-0.350
708.02	-0.314
708.34	-0.378
708.67	-0.317
708.99	-0.365
709.31	-0.387
709.63	-0.345
709.95	-0.339
710.27	-0.341
710.59	-0.354
710.92	-0.332
711.24	-0.414
711.56	-0.391
711.88	-0.409
712.20	-0.398
712.52	-0.368
712.84	-0.383
713.16	-0.415
713.48	-0.435
713.80	-0.403
714.12	-0.400
714.45	-0.397
714.77	-0.467
715.09	-0.439
715.41	-0.425
715.73	-0.466
716.05	-0.500
716.37	-0.504
716.69	-0.491
717.01	-0.461
717.33	-0.499
717.65	-0.451
717.97	-0.520
718.29	-0.524
718.61	-0.524
718.93	-0.534
719.25	-0.492
719.57	-0.547
719.89	-0.585
720.21	-0.538
720.53	-0.552
720.85	-0.544
721.17	-0.548
721.49	-0.608
721.81	-0.625
722.13	-0.600
722.45	-0.635
722.77	-0.597
723.09	-0.703
723.41	-0.712
723.72	-0.639
724.04	-0.695
724.36	-0.682
724.68	-0.725
725.00	-0.754
725.32	-0.751
725.64	-0.726
725.96	-0.739
726.28	-0.795
726.60	-0.753
726.91	-0.736
727.23	-0.871
727.55	-0.816
727.87	-0.795
728.19	-0.847
728.51	-0.869
728.83	-0.910
729.14	-0.865
729.46	-0.895
729.78	-0.904
730.10	-0.957
730.42	-0.961
730.74	-0.973
731.05	-0.977
731.37	-0.898
731.69	-0.892
732.01	-1.028
732.33	-1.014
732.64	-0.964
732.96	-1.086
733.28	-1.035
733.60	-0.951
733.92	-1.008
734.23	-1.014
734.55	-1.061
734.87	-1.041
735.19	-1.031
735.50	-1.062
735.82	-0.985
736.14	-0.968
736.45	-1.074
736.77	-1.018
737.09	-0.996
737.41	-1.027
737.72	-1.019
738.04	-0.988
738.36	-0.974
738.67	-1.049
738.99	-1.034
739.31	-0.999
739.63	-1.030
739.94	-1.038
740.26	-0.942
740.58	-1.014
740.89	-0.995
741.21	-1.006
741.52	-1.001
741.84	-0.971
742.16	-0.990
742.47	-1.021
742.79	-1.066
743.11	-0.932
743.42	-0.934
743.74	-0.917
744.05	-1.007
744.37	-0.900
744.69	-0.968
745.00	-0.914
745.32	-0.876
745.63	-0.895
745.95	-0.959
746.27	-0.863
746.58	-0.907
746.90	-0.850
747.21	-0.952
747.53	-0.858
747.84	-0.924
748.16	-0.882
748.47	-0.879
748.79	-0.926
749.10	-0.843
749.42	-0.884
749.74	-0.832
750.05	-0.853
750.37	-0.868
750.68	-0.854
751.00	-0.852
751.31	-0.766
751.62	-0.827
751.94	-0.822
752.25	-0.815
752.57	-0.749
752.88	-0.790
753.20	-0.875
753.51	-0.784
753.83	-0.766
754.14	-0.749
754.46	-0.742
754.77	-0.793
755.08	-0.803
755.40	-0.727
755.71	-0.770
756.03	-0.752
756.34	-0.713
756.66	-0.803
756.97	-0.737
757.28	-0.657
757.60	-0.756
757.91	-0.697
758.22	-0.723
758.54	-0.709
758.85	-0.748
759.17	-0.752
759.48	-0.774
759.79	-0.749
760.11	-0.694
760.42	-0.723
760.73	-0.640
761.05	-0.727
761.36	-0.677
761.67	-0.714
761.99	-0.729
762.30	-0.675
762.61	-0.669
762.92	-0.713
763.24	-0.655
763.55	-0.695
763.86	-0.759
764.18	-0.673
764.49	-0.699
764.80	-0.685
765.11	-0.751
765.43	-0.705
765.74	-0.680
766.05	-0.680
766.36	-0.664
766.68	-0.643
766.99	-0.711
767.30	-0.670
767.61	-0.706
767.93	-0.692
768.24	-0.644
768.55	-0.670
768.86	-0.751
769.17	-0.663
769.49	-0.691
769.80	-0.638
770.11	-0.647
770.42	-0.676
770.73	-0.740
771.04	-0.682
771.36	-0.714
771.67	-0.618
771.98	-0.673
772.29	-0.705
772.60	-0.670
772.91	-0.734
773.22	-0.685
773.54	-0.704
773.85	-0.688
774.16	-0.692
774.47	-0.656
774.78	-0.655
775.09	-0.694
775.40	-0.700
775.71	-0.789
776.02	-0.667
776.33	-0.747
776.64	-0.771
776.96	-0.722
777.27	-0.743
777.58	-0.717
777.89	-0.699
778.20	-0.713
778.51	-0.766
778.82	-0.753
779.13	-0.696
779.44	-0.784
779.75	-0.856
780.06	-0.812
780.37	-0.846
780.68	-0.796
780.99	-0.750
781.30	-0.801
781.61	-0.814
781.92	-0.786
782.23	-0.778
782.54	-0.880
782.85	-0.861
783.16	-0.816
783.47	-0.802
783.78	-0.809
784.08	-0.870
784.39	-0.918
784.70	-0.878
785.01	-0.858
785.32	-0.888
785.63	-0.903
785.94	-0.890
786.25	-0.951
786.56	-1.014
786.87	-0.953
787.18	-0.954
787.48	-0.926
787.79	-0.984
788.10	-0.920
788.41	-0.972
788.72	-0.976
789.03	-0.956
789.34	-1.040
789.64	-1.026
789.95	-1.044
790.26	-1.002
790.57	-0.959
790.88	-1.063
791.19	-1.071
791.49	-1.150
791.80	-1.122
792.11	-1.076
792.42	-1.150
792.73	-1.122
793.03	-1.086
793.34	-1.077
793.65	-1.153
793.96	-1.222
794.27	-1.164
794.57	-1.263
794.88	-1.167
795.19	-1.225
795.50	-1.233
795.80	-1.289
796.11	-1.291
796.42	-1.238
796.72	-1.368
797.03	-1.282
797.34	-1.357
797.65	-1.328
797.95	-1.316
798.26	-1.374
798.57	-1.280
798.87	-1.370
799.18	-1.361
799.49	-1.467
799.79	-1.446
800.10	-1.499
800.41	-1.504
800.71	-1.470
801.02	-1.503
801.33	-1.456
801.63	-1.467
801.94	-1.536
802.24	-1.482
802.55	-1.590
802.86	-1.504
803.16	-1.719
803.47	-1.659
803.77	-1.569
804.08	-1.681
804.39	-1.757
804.69	-1.664
805.00	-1.685
805.30	-1.666
805.61	-1.825
805.91	-1.786
806.22	-1.805
806.53	-1.667
806.83	-1.884
807.14	-2.032
807.44	-1.891
807.75	-1.891
808.05	-1.862
808.36	-1.963
808.66	-1.955
808.97	-1.873
809.27	-1.897
809.58	-2.051
809.88	-1.821
810.19	-1.986
810.49	-2.023
810.80	-2.121
811.10	-1.939
811.41	-1.940
811.71	-2.110
812.01	-1.975
812.32	-2.307
812.62	-2.212
812.93	-2.133
813.23	-2.133
813.54	-2.169
813.84	-2.125
814.14	-2.439
814.45	-2.316
814.75	-2.306
815.06	-2.426
815.36	-2.459
815.66	-2.548
815.97	-2.677
816.27	-2.475
816.58	-2.509
816.88	-2.525
817.18	-2.731
817.49	-2.783
817.79	-2.475
818.09	-2.766
818.40	-3.025
818.70	-2.819
819.00	-2.908
819.31	-2.892
819.61	-2.821
819.91	-2.761
820.21	-2.947
820.52	-3.054
820.82	-3.058
821.12	-2.832
821.43	-3.131
821.73	-3.205
822.03	-3.220
822.33	-3.157
822.64	-3.453
822.94	-3.354
823.24	-3.372
823.54	-3.356
823.85	-3.561
824.15	-3.492
824.45	-3.592
824.75	-3.542
825.05	-3.762
825.36	-3.810
825.66	-3.696
825.96	-3.605
826.26	-4.213
826.56	-3.691
826.87	-4.006
827.17	-4.043
827.47	-4.135
827.77	-4.312
828.07	-4.398
828.37	-4.172
828.67	-4.548
828.98	-4.529
829.28	-4.494
829.58	-4.589
829.88	-4.723
830.18	-4.770
830.48	-4.867
830.78	-4.909
831.08	-5.042
831.38	-4.805
831.69	-4.863
831.99	-5.767
832.29	-5.281
832.59	-5.646
832.89	-5.525
833.19	-6.214
833.49	-6.205
833.79	-5.929
834.09	-5.720
834.39	-6.628
834.69	-6.425
834.99	-6.482
835.29	-7.107
835.59	-7.007
835.89	-7.062
836.19	-6.792
836.49	-7.214
836.79	-7.463
837.09	-7.852
837.39	-8.538
837.69	-7.320
837.99	-8.454
838.29	-8.795
838.59	-8.748
838.89	-8.828
839.19	-8.360
839.49	-9.122
839.79	-8.384
840.09	-10.288
840.39	-9.884
840.68	-10.661
840.98	-10.432
841.28	-9.406
841.58	-10.077
841.88	-11.016
842.18	-10.182
842.48	-11.313
842.78	-11.655
843.08	-11.725
843.37	-11.832
843.67	-12.038
843.97	-13.037
844.27	-13.486
844.57	-13.034
844.87	-14.474
845.16	-13.514
845.46	-14.729
845.76	-16.075
846.06	-15.655
846.36	-16.490
846.66	-16.839
846.95	-17.957
847.25	-16.349
847.55	-17.132
847.85	-19.039
848.14	-18.162
848.44	-18.934
848.74	-19.012
849.04	-19.731
849.33	-19.302
849.63	-21.740
849.93	-21.732
850.23	-21.208
850.52	-22.103
850.82	-22.590
851.12	-23.671
851.42	-26.591
851.71	-25.249
852.01	-28.022
852.31	-27.470
852.60	-27.692
852.90	-28.219
853.20	-27.464
853.49	-28.686
853.79	-33.942
854.09	-30.554
854.38	-29.808
854.68	-30.679
854.98	-32.144
855.27	-27.918
855.57	-36.626
855.86	-33.440
856.16	-36.068
856.46	-33.469
856.75	-34.673
857.05	-34.827
857.34	-35.807
857.64	-37.236
857.94	-36.882
858.23	-38.399
858.53	-37.077
858.82	-39.456
859.12	-38.433
859.41	-36.713
859.71	-40.896
860.01	-41.284
860.30	-39.141
860.60	-40.356
860.89	-39.991
861.19	-38.944
861.48	-40.057
861.78	-37.189
862.07	-42.363
862.37	-42.633
862.66	-42.287
862.96	-41.028
863.25	-42.623
863.55	-34.967
863.84	-42.427
864.13	-44.330
864.43	-40.835
864.72	-40.815
865.02	-39.189
865.31	-42.372
865.61	-36.927
865.90	-41.687
866.19	-41.764
866.49	-41.240
866.78	-39.516
867.08	-40.337
867.37	-42.092
867.66	-39.874
867.96	-41.047
868.25	-37.270
868.55	-39.747
868.84	-43.121
869.13	-41.963
869.43	-41.383
869.72	-38.228
870.01	-43.338
870.31	-37.816
870.60	-42.965
870.89	-41.373
871.19	-40.323
871.48	-37.374
871.77	-41.785
872.07	-45.605
872.36	-42.694
872.65	-38.731
872.94	-46.660
873.24	-39.869
873.53	-40.834
873.82	-40.951
874.11	-43.915
874.41	-44.673
874.70	-48.891
>>>>>End Processed Spectral Data<<<<<
