SpectraSuite Data File
++++++++++++++++++++++++++++++++++++
Date: Tue Apr 28 18:54:05 BST 2015
User: mpfc3
Dark Spectrum Present: Yes
Reference Spectrum Present: Yes
Number of Sampled Component Spectra: 1
Spectrometers: USB2E3636
Integration Time (usec): 30000 (USB2E3636)
Spectra Averaged: 100 (USB2E3636)
Boxcar Smoothing: 0 (USB2E3636)
Correct for Electrical Dark: No (USB2E3636)
Strobe/Lamp Enabled: No (USB2E3636)
Correct for Detector Non-linearity: No (USB2E3636)
Correct for Stray Light: No (USB2E3636)
Number of Pixels in Processed Spectrum: 2048
>>>>>Begin Processed Spectral Data<<<<<
180.28	0.000
180.65	172.865
181.02	179.099
181.39	186.192
181.77	176.938
182.14	187.898
182.51	190.909
182.88	177.848
183.25	184.490
183.63	169.087
184.00	207.952
184.37	183.404
184.74	167.262
185.11	201.345
185.49	176.483
185.86	173.284
186.23	194.688
186.60	192.925
186.97	173.372
187.35	176.759
187.72	196.868
188.09	186.742
188.46	198.093
188.83	188.066
189.20	-875.789
189.58	-44.467
189.95	-49.057
190.32	-50.402
190.69	-50.360
191.06	-48.840
191.43	-53.508
191.81	-51.683
192.18	-49.149
192.55	-48.138
192.92	-53.004
193.29	-49.179
193.66	-53.634
194.03	-47.283
194.41	-50.000
194.78	-53.071
195.15	-45.461
195.52	-48.839
195.89	-48.874
196.26	-43.399
196.63	-52.330
197.01	-45.399
197.38	-46.218
197.75	-47.306
198.12	-47.281
198.49	-51.073
198.86	-51.852
199.23	-48.630
199.60	-54.834
199.98	-51.622
200.35	-55.891
200.72	-46.230
201.09	-52.042
201.46	-49.052
201.83	-56.731
202.20	-46.015
202.57	-50.427
202.94	-54.662
203.31	-45.090
203.69	-49.207
204.06	-48.799
204.43	-47.696
204.80	-58.099
205.17	-48.941
205.54	-49.780
205.91	-44.682
206.28	-48.842
206.65	-50.000
207.02	-55.082
207.39	-57.382
207.76	-48.038
208.14	-51.652
208.51	-55.564
208.88	-54.420
209.25	-52.482
209.62	-50.224
209.99	-52.695
210.36	-53.730
210.73	-48.404
211.10	-54.721
211.47	-54.075
211.84	-59.641
212.21	-53.787
212.58	-52.950
212.95	-55.349
213.32	-54.718
213.69	-66.263
214.06	-53.780
214.43	-53.073
214.80	-55.334
215.17	-51.829
215.55	-56.073
215.92	-53.323
216.29	-55.678
216.66	-58.464
217.03	-50.546
217.40	-58.981
217.77	-59.583
218.14	-59.756
218.51	-62.702
218.88	-55.660
219.25	-50.562
219.62	-60.000
219.99	-57.916
220.36	-51.525
220.73	-57.556
221.10	-57.473
221.47	-61.069
221.84	-61.008
222.21	-64.060
222.58	-60.711
222.95	-58.955
223.32	-61.354
223.69	-65.719
224.06	-63.832
224.43	-61.168
224.80	-63.348
225.17	-65.426
225.54	-58.355
225.91	-53.429
226.27	-47.866
226.64	-66.785
227.01	-66.365
227.38	-62.742
227.75	-67.882
228.12	-61.230
228.49	-66.336
228.86	-65.070
229.23	-58.386
229.60	-64.958
229.97	-61.378
230.34	-61.345
230.71	-63.245
231.08	-71.078
231.45	-70.392
231.82	-63.432
232.19	-76.326
232.56	-64.830
232.93	-68.541
233.30	-61.579
233.66	-77.988
234.03	-69.485
234.40	-65.524
234.77	-66.980
235.14	-77.968
235.51	-67.040
235.88	-68.431
236.25	-69.498
236.62	-76.670
236.99	-77.383
237.36	-72.533
237.73	-72.095
238.09	-70.059
238.46	-78.067
238.83	-83.316
239.20	-69.940
239.57	-72.325
239.94	-73.922
240.31	-75.692
240.68	-66.634
241.05	-71.530
241.41	-69.837
241.78	-73.307
242.15	-71.120
242.52	-78.607
242.89	-71.960
243.26	-76.763
243.63	-70.553
244.00	-79.266
244.36	-75.602
244.73	-81.142
245.10	-74.728
245.47	-78.587
245.84	-73.940
246.21	-73.797
246.58	-67.836
246.94	-69.807
247.31	-77.173
247.68	-80.301
248.05	-76.113
248.42	-73.711
248.79	-83.058
249.15	-82.481
249.52	-71.063
249.89	-79.358
250.26	-72.782
250.63	-85.698
251.00	-77.594
251.36	-81.174
251.73	-75.103
252.10	-79.249
252.47	-66.873
252.84	-87.791
253.20	-84.078
253.57	-83.959
253.94	-82.412
254.31	-71.951
254.68	-68.410
255.05	-73.326
255.41	-86.682
255.78	-80.868
256.15	-84.693
256.52	-82.346
256.88	-78.831
257.25	-83.973
257.62	-99.754
257.99	-93.349
258.36	-103.949
258.72	-81.756
259.09	-81.365
259.46	-103.470
259.83	-91.408
260.19	-80.884
260.56	-84.305
260.93	-81.271
261.30	-89.238
261.67	-86.706
262.03	-87.204
262.40	-86.691
262.77	-81.047
263.14	-83.240
263.50	-78.531
263.87	-91.966
264.24	-76.906
264.61	-87.414
264.97	-91.459
265.34	-70.878
265.71	-87.734
266.07	-92.131
266.44	-80.000
266.81	-86.909
267.18	-84.925
267.54	-86.293
267.91	-83.964
268.28	-82.536
268.64	-90.122
269.01	-82.380
269.38	-92.762
269.75	-91.914
270.11	-91.180
270.48	-95.609
270.85	-84.615
271.21	-87.456
271.58	-94.082
271.95	-83.544
272.32	-86.925
272.68	-86.738
273.05	-82.802
273.42	-91.532
273.78	-96.717
274.15	-92.770
274.52	-80.313
274.88	-90.256
275.25	-77.624
275.62	-88.659
275.98	-86.824
276.35	-91.677
276.72	-88.554
277.08	-93.133
277.45	-94.717
277.82	-95.478
278.18	-92.534
278.55	-92.965
278.92	-83.023
279.28	-92.552
279.65	-77.100
280.01	-90.036
280.38	-90.342
280.75	-93.821
281.11	-78.935
281.48	-80.404
281.85	-85.923
282.21	-94.709
282.58	-82.033
282.95	-74.432
283.31	-97.756
283.68	-89.753
284.04	-77.380
284.41	-96.183
284.78	-76.626
285.14	-84.540
285.51	-70.079
285.87	-97.413
286.24	-87.032
286.61	-91.114
286.97	-84.096
287.34	-88.889
287.70	-76.769
288.07	-86.731
288.44	-76.045
288.80	-80.702
289.17	-81.570
289.53	-93.900
289.90	-93.457
290.26	-84.282
290.63	-93.210
291.00	-95.731
291.36	-89.343
291.73	-92.781
292.09	-91.842
292.46	-89.923
292.82	-74.586
293.19	-88.659
293.56	-90.319
293.92	-73.243
294.29	-83.945
294.65	-85.748
295.02	-80.568
295.38	-72.229
295.75	-82.081
296.11	-85.874
296.48	-89.251
296.84	-76.264
297.21	-75.310
297.57	-95.411
297.94	-88.280
298.30	-88.364
298.67	-81.623
299.04	-78.808
299.40	-79.115
299.77	-89.316
300.13	-79.638
300.50	-84.615
300.86	-89.518
301.23	-77.492
301.59	-73.802
301.96	-73.163
302.32	-80.199
302.69	-90.756
303.05	-72.799
303.42	-89.692
303.78	-83.010
304.14	-73.889
304.51	-73.776
304.87	-82.988
305.24	-82.118
305.60	-73.739
305.97	-80.663
306.33	-76.346
306.70	-67.973
307.06	-77.176
307.43	-63.379
307.79	-74.093
308.16	-75.161
308.52	-66.263
308.88	-67.778
309.25	-73.452
309.61	-72.165
309.98	-75.699
310.34	-83.867
310.71	-73.044
311.07	-68.196
311.44	-66.702
311.80	-70.607
312.16	-64.145
312.53	-74.070
312.89	-70.352
313.26	-64.706
313.62	-58.417
313.98	-63.680
314.35	-70.663
314.71	-60.721
315.08	-61.006
315.44	-59.578
315.80	-62.500
316.17	-65.075
316.53	-57.965
316.90	-62.307
317.26	-61.351
317.62	-71.656
317.99	-67.269
318.35	-63.085
318.72	-60.475
319.08	-63.764
319.44	-66.337
319.81	-63.993
320.17	-57.398
320.53	-57.038
320.90	-52.462
321.26	-59.695
321.62	-59.560
321.99	-55.025
322.35	-54.825
322.72	-57.961
323.08	-58.824
323.44	-55.565
323.81	-49.516
324.17	-63.583
324.53	-53.338
324.90	-58.095
325.26	-48.584
325.62	-51.954
325.99	-51.446
326.35	-50.422
326.71	-49.819
327.08	-47.606
327.44	-45.135
327.80	-45.676
328.16	-44.635
328.53	-51.809
328.89	-45.055
329.25	-45.435
329.62	-37.862
329.98	-34.896
330.34	-40.345
330.71	-42.910
331.07	-43.616
331.43	-45.368
331.79	-37.178
332.16	-34.488
332.52	-39.339
332.88	-35.620
333.24	-38.462
333.61	-34.963
333.97	-34.472
334.33	-37.354
334.70	-31.847
335.06	-37.654
335.42	-30.758
335.78	-30.565
336.15	-31.920
336.51	-31.895
336.87	-33.603
337.23	-32.538
337.60	-30.667
337.96	-29.551
338.32	-29.545
338.68	-25.042
339.04	-29.234
339.41	-27.113
339.77	-27.063
340.13	-25.203
340.49	-23.157
340.86	-28.391
341.22	-26.723
341.58	-25.787
341.94	-24.736
342.30	-22.977
342.67	-23.758
343.03	-24.083
343.39	-23.662
343.75	-21.388
344.11	-23.943
344.48	-24.115
344.84	-22.211
345.20	-22.203
345.56	-20.764
345.92	-20.337
346.28	-22.294
346.65	-17.975
347.01	-19.665
347.37	-22.447
347.73	-20.091
348.09	-19.374
348.45	-18.883
348.82	-18.585
349.18	-19.345
349.54	-19.698
349.90	-18.460
350.26	-17.786
350.62	-16.337
350.98	-16.986
351.35	-16.552
351.71	-17.476
352.07	-14.321
352.43	-15.410
352.79	-14.187
353.15	-15.005
353.51	-16.498
353.87	-12.689
354.24	-14.003
354.60	-14.761
354.96	-14.430
355.32	-13.812
355.68	-13.947
356.04	-12.550
356.40	-13.507
356.76	-13.205
357.12	-11.365
357.48	-13.712
357.85	-14.943
358.21	-12.872
358.57	-10.634
358.93	-12.113
359.29	-12.088
359.65	-12.005
360.01	-12.697
360.37	-10.684
360.73	-10.949
361.09	-12.686
361.45	-10.589
361.81	-10.219
362.17	-10.688
362.53	-9.916
362.89	-9.585
363.25	-10.081
363.62	-10.027
363.98	-10.748
364.34	-8.979
364.70	-9.733
365.06	-9.139
365.42	-8.764
365.78	-8.673
366.14	-9.581
366.50	-8.533
366.86	-8.303
367.22	-9.005
367.58	-8.735
367.94	-8.214
368.30	-8.985
368.66	-7.429
369.02	-8.153
369.38	-7.579
369.74	-7.411
370.10	-7.272
370.46	-6.645
370.82	-6.678
371.18	-7.745
371.54	-6.736
371.90	-7.279
372.26	-6.002
372.62	-6.124
372.98	-7.010
373.33	-6.172
373.69	-5.952
374.05	-5.456
374.41	-5.984
374.77	-6.147
375.13	-5.298
375.49	-4.424
375.85	-5.560
376.21	-5.828
376.57	-6.071
376.93	-5.464
377.29	-4.507
377.65	-4.844
378.01	-5.096
378.37	-5.054
378.73	-4.856
379.08	-4.519
379.44	-4.519
379.80	-4.245
380.16	-4.342
380.52	-3.760
380.88	-4.243
381.24	-3.659
381.60	-3.699
381.96	-3.145
382.32	-3.662
382.67	-2.905
383.03	-3.128
383.39	-2.381
383.75	-2.956
384.11	-2.690
384.47	-3.042
384.83	-2.580
385.19	-2.725
385.54	-2.251
385.90	-2.414
386.26	-1.988
386.62	-1.853
386.98	-1.497
387.34	-1.578
387.70	-0.697
388.05	-1.380
388.41	-1.362
388.77	-1.006
389.13	-0.536
389.49	-0.794
389.85	-0.056
390.20	-0.152
390.56	0.143
390.92	0.047
391.28	-0.341
391.64	0.080
391.99	0.627
392.35	0.066
392.71	1.100
393.07	0.813
393.43	1.139
393.78	0.972
394.14	1.264
394.50	1.332
394.86	1.580
395.22	1.621
395.57	1.770
395.93	1.918
396.29	1.910
396.65	2.388
397.00	2.439
397.36	2.386
397.72	2.338
398.08	3.055
398.43	2.984
398.79	3.257
399.15	3.303
399.51	3.765
399.86	3.748
400.22	4.071
400.58	3.957
400.94	4.117
401.29	4.201
401.65	4.691
402.01	4.642
402.37	5.160
402.72	5.023
403.08	5.268
403.44	5.125
403.79	5.450
404.15	5.704
404.51	5.489
404.86	5.555
405.22	6.221
405.58	6.291
405.94	6.313
406.29	6.362
406.65	6.890
407.01	6.639
407.36	6.876
407.72	6.894
408.08	6.880
408.43	7.221
408.79	7.319
409.15	7.469
409.50	7.617
409.86	7.526
410.22	7.978
410.57	8.043
410.93	7.916
411.29	8.409
411.64	8.726
412.00	8.711
412.35	8.808
412.71	8.765
413.07	8.789
413.42	9.246
413.78	9.302
414.14	9.395
414.49	9.583
414.85	9.801
415.20	10.120
415.56	10.041
415.92	10.315
416.27	10.552
416.63	10.642
416.98	10.464
417.34	10.751
417.70	10.938
418.05	11.195
418.41	10.974
418.76	11.245
419.12	11.539
419.47	11.687
419.83	11.775
420.19	11.920
420.54	12.000
420.90	12.034
421.25	12.396
421.61	12.358
421.96	12.196
422.32	12.456
422.67	12.949
423.03	12.756
423.39	13.163
423.74	13.183
424.10	13.266
424.45	13.589
424.81	13.445
425.16	13.700
425.52	13.922
425.87	13.977
426.23	14.058
426.58	14.026
426.94	14.526
427.29	14.689
427.65	14.884
428.00	14.518
428.36	14.867
428.71	14.906
429.07	15.146
429.42	15.434
429.78	15.343
430.13	15.463
430.49	15.667
430.84	15.640
431.19	15.881
431.55	16.047
431.90	15.998
432.26	16.122
432.61	16.357
432.97	16.427
433.32	16.800
433.68	16.865
434.03	16.766
434.39	16.915
434.74	17.089
435.09	17.052
435.45	17.202
435.80	17.396
436.16	17.637
436.51	17.514
436.86	17.614
437.22	17.957
437.57	18.109
437.93	18.153
438.28	18.346
438.63	18.300
438.99	18.440
439.34	18.526
439.70	18.773
440.05	18.849
440.40	19.030
440.76	19.057
441.11	19.163
441.47	19.058
441.82	19.209
442.17	19.414
442.53	19.664
442.88	19.649
443.23	19.580
443.59	19.806
443.94	19.945
444.29	20.097
444.65	20.104
445.00	20.255
445.35	20.307
445.71	20.402
446.06	20.568
446.41	20.613
446.77	20.833
447.12	20.812
447.47	20.860
447.83	20.919
448.18	21.195
448.53	21.095
448.89	21.326
449.24	21.438
449.59	21.515
449.94	21.603
450.30	21.753
450.65	21.794
451.00	21.977
451.36	22.034
451.71	22.107
452.06	22.295
452.41	22.245
452.77	22.366
453.12	22.532
453.47	22.554
453.82	22.635
454.18	22.913
454.53	22.971
454.88	23.092
455.23	23.344
455.59	23.299
455.94	23.224
456.29	23.527
456.64	23.424
457.00	23.782
457.35	23.781
457.70	23.890
458.05	23.953
458.40	24.180
458.76	24.257
459.11	24.434
459.46	24.451
459.81	24.473
460.16	24.634
460.52	24.649
460.87	24.856
461.22	24.884
461.57	25.022
461.92	25.048
462.28	25.117
462.63	25.147
462.98	25.395
463.33	25.485
463.68	25.488
464.03	25.632
464.38	25.722
464.74	25.745
465.09	25.852
465.44	26.131
465.79	26.074
466.14	26.119
466.49	26.278
466.84	26.377
467.20	26.359
467.55	26.478
467.90	26.660
468.25	26.520
468.60	26.669
468.95	26.891
469.30	26.790
469.65	26.993
470.00	26.943
470.36	27.228
470.71	27.178
471.06	27.264
471.41	27.234
471.76	27.262
472.11	27.342
472.46	27.404
472.81	27.413
473.16	27.557
473.51	27.570
473.86	27.649
474.21	27.669
474.56	27.752
474.91	27.724
475.26	27.792
475.62	27.922
475.97	27.785
476.32	27.799
476.67	27.762
477.02	27.796
477.37	27.790
477.72	27.912
478.07	27.995
478.42	27.916
478.77	27.973
479.12	27.912
479.47	27.931
479.82	27.969
480.17	27.989
480.52	27.875
480.87	27.959
481.22	28.039
481.57	28.007
481.92	28.047
482.27	27.982
482.62	28.017
482.97	27.985
483.32	27.949
483.67	28.044
484.02	28.042
484.36	27.976
484.71	28.129
485.06	28.118
485.41	28.041
485.76	28.158
486.11	28.171
486.46	28.227
486.81	28.329
487.16	28.353
487.51	28.346
487.86	28.457
488.21	28.443
488.56	28.551
488.91	28.582
489.25	28.742
489.60	28.766
489.95	28.751
490.30	28.852
490.65	28.918
491.00	28.893
491.35	28.993
491.70	29.120
492.05	29.094
492.39	29.268
492.74	29.310
493.09	29.418
493.44	29.489
493.79	29.558
494.14	29.691
494.49	29.731
494.83	29.835
495.18	29.841
495.53	29.914
495.88	30.047
496.23	30.195
496.58	30.239
496.92	30.292
497.27	30.364
497.62	30.522
497.97	30.570
498.32	30.750
498.67	30.760
499.01	30.838
499.36	30.858
499.71	30.920
500.06	31.077
500.41	31.118
500.75	31.167
501.10	31.202
501.45	31.347
501.80	31.359
502.14	31.413
502.49	31.486
502.84	31.544
503.19	31.638
503.53	31.602
503.88	31.643
504.23	31.757
504.58	31.713
504.92	31.816
505.27	31.911
505.62	31.909
505.97	31.930
506.31	32.012
506.66	32.103
507.01	32.030
507.36	32.028
507.70	32.048
508.05	32.053
508.40	31.964
508.74	32.066
509.09	32.080
509.44	31.958
509.79	31.963
510.13	31.913
510.48	31.967
510.83	31.839
511.17	31.931
511.52	31.896
511.87	31.816
512.21	31.804
512.56	31.852
512.91	31.850
513.25	31.867
513.60	31.840
513.95	31.916
514.29	31.975
514.64	31.982
514.98	32.034
515.33	32.144
515.68	32.192
516.02	32.129
516.37	32.193
516.72	32.239
517.06	32.283
517.41	32.329
517.75	32.245
518.10	32.357
518.45	32.439
518.79	32.435
519.14	32.397
519.48	32.493
519.83	32.494
520.18	32.494
520.52	32.494
520.87	32.531
521.21	32.495
521.56	32.540
521.90	32.507
522.25	32.533
522.60	32.526
522.94	32.608
523.29	32.528
523.63	32.546
523.98	32.591
524.32	32.515
524.67	32.506
525.01	32.443
525.36	32.432
525.70	32.385
526.05	32.380
526.39	32.302
526.74	32.245
527.08	32.207
527.43	32.175
527.77	32.056
528.12	32.026
528.46	31.983
528.81	31.869
529.15	31.799
529.50	31.682
529.84	31.588
530.19	31.436
530.53	31.323
530.88	31.281
531.22	31.090
531.57	30.924
531.91	30.876
532.26	30.755
532.60	30.556
532.94	30.353
533.29	30.282
533.63	30.071
533.98	29.928
534.32	29.712
534.67	29.504
535.01	29.242
535.35	29.036
535.70	28.826
536.04	28.621
536.39	28.435
536.73	28.208
537.07	27.939
537.42	27.765
537.76	27.494
538.11	27.250
538.45	27.049
538.79	26.850
539.14	26.641
539.48	26.352
539.82	26.235
540.17	26.043
540.51	25.787
540.85	25.595
541.20	25.389
541.54	25.229
541.89	25.070
542.23	24.935
542.57	24.798
542.92	24.677
543.26	24.548
543.60	24.413
543.94	24.366
544.29	24.333
544.63	24.248
544.97	24.231
545.32	24.186
545.66	24.106
546.00	24.111
546.35	24.082
546.69	24.080
547.03	24.050
547.37	24.096
547.72	24.135
548.06	24.179
548.40	24.227
548.75	24.313
549.09	24.322
549.43	24.437
549.77	24.461
550.12	24.545
550.46	24.635
550.80	24.743
551.14	24.798
551.49	24.922
551.83	25.100
552.17	25.186
552.51	25.333
552.85	25.507
553.20	25.633
553.54	25.867
553.88	26.015
554.22	26.171
554.56	26.428
554.91	26.732
555.25	26.917
555.59	27.107
555.93	27.349
556.27	27.578
556.62	27.819
556.96	28.087
557.30	28.353
557.64	28.539
557.98	28.837
558.32	29.056
558.67	29.342
559.01	29.661
559.35	29.864
559.69	30.127
560.03	30.359
560.37	30.563
560.71	30.846
561.05	31.115
561.40	31.269
561.74	31.530
562.08	31.721
562.42	31.995
562.76	32.180
563.10	32.354
563.44	32.572
563.78	32.716
564.12	32.888
564.46	33.066
564.81	33.275
565.15	33.387
565.49	33.549
565.83	33.659
566.17	33.755
566.51	33.891
566.85	33.998
567.19	34.063
567.53	34.089
567.87	34.246
568.21	34.212
568.55	34.288
568.89	34.312
569.23	34.371
569.57	34.366
569.91	34.343
570.25	34.361
570.59	34.317
570.93	34.381
571.27	34.280
571.61	34.262
571.95	34.169
572.29	34.170
572.63	34.119
572.97	34.071
573.31	34.014
573.65	33.866
573.99	33.773
574.33	33.716
574.67	33.587
575.01	33.378
575.35	33.309
575.69	33.218
576.03	33.146
576.37	33.009
576.71	32.868
577.05	32.772
577.39	32.616
577.73	32.340
578.06	32.267
578.40	32.058
578.74	31.899
579.08	31.723
579.42	31.566
579.76	31.402
580.10	31.161
580.44	30.915
580.78	30.756
581.12	30.545
581.45	30.316
581.79	30.081
582.13	29.895
582.47	29.728
582.81	29.541
583.15	29.353
583.49	29.202
583.83	28.942
584.16	28.872
584.50	28.601
584.84	28.484
585.18	28.346
585.52	28.154
585.86	27.979
586.19	27.828
586.53	27.702
586.87	27.559
587.21	27.321
587.55	27.174
587.88	27.074
588.22	26.933
588.56	26.701
588.90	26.457
589.24	26.308
589.57	26.087
589.91	25.912
590.25	25.634
590.59	25.444
590.92	25.257
591.26	25.000
591.60	24.730
591.94	24.513
592.27	24.302
592.61	23.898
592.95	23.653
593.29	23.402
593.62	23.105
593.96	22.740
594.30	22.437
594.64	22.186
594.97	21.797
595.31	21.414
595.65	21.043
595.98	20.670
596.32	20.206
596.66	19.821
597.00	19.336
597.33	18.936
597.67	18.396
598.01	17.908
598.34	17.456
598.68	17.018
599.02	16.502
599.35	16.053
599.69	15.715
600.03	15.284
600.36	14.935
600.70	14.544
601.03	14.182
601.37	13.880
601.71	13.570
602.04	13.248
602.38	13.005
602.72	12.679
603.05	12.408
603.39	12.152
603.72	11.842
604.06	11.597
604.40	11.328
604.73	11.054
605.07	10.750
605.40	10.419
605.74	10.191
606.08	9.857
606.41	9.602
606.75	9.334
607.08	9.033
607.42	8.731
607.75	8.457
608.09	8.185
608.42	7.927
608.76	7.612
609.10	7.329
609.43	7.049
609.77	6.806
610.10	6.494
610.44	6.276
610.77	5.991
611.11	5.746
611.44	5.484
611.78	5.247
612.11	4.980
612.45	4.770
612.78	4.542
613.12	4.351
613.45	4.089
613.79	3.928
614.12	3.708
614.46	3.551
614.79	3.351
615.13	3.216
615.46	3.065
615.79	2.865
616.13	2.751
616.46	2.605
616.80	2.503
617.13	2.382
617.47	2.280
617.80	2.201
618.13	2.131
618.47	2.002
618.80	1.943
619.14	1.848
619.47	1.801
619.81	1.751
620.14	1.657
620.47	1.601
620.81	1.530
621.14	1.506
621.47	1.460
621.81	1.394
622.14	1.364
622.48	1.309
622.81	1.268
623.14	1.210
623.48	1.201
623.81	1.146
624.14	1.138
624.48	1.111
624.81	1.073
625.14	1.095
625.48	1.055
625.81	1.049
626.14	1.044
626.48	1.025
626.81	1.035
627.14	1.021
627.48	1.040
627.81	1.036
628.14	1.055
628.47	1.077
628.81	1.072
629.14	1.118
629.47	1.131
629.81	1.212
630.14	1.242
630.47	1.244
630.80	1.302
631.14	1.371
631.47	1.437
631.80	1.509
632.13	1.592
632.47	1.691
632.80	1.780
633.13	1.874
633.46	2.010
633.79	2.103
634.13	2.220
634.46	2.349
634.79	2.532
635.12	2.663
635.45	2.820
635.79	3.017
636.12	3.212
636.45	3.412
636.78	3.556
637.11	3.775
637.45	4.001
637.78	4.205
638.11	4.471
638.44	4.720
638.77	4.941
639.10	5.213
639.44	5.447
639.77	5.728
640.10	6.007
640.43	6.259
640.76	6.535
641.09	6.800
641.42	7.094
641.75	7.326
642.08	7.665
642.42	7.899
642.75	8.201
643.08	8.446
643.41	8.752
643.74	9.027
644.07	9.222
644.40	9.526
644.73	9.769
645.06	10.059
645.39	10.275
645.72	10.541
646.05	10.763
646.38	10.993
646.72	11.193
647.05	11.387
647.38	11.627
647.71	11.839
648.04	11.957
648.37	12.129
648.70	12.320
649.03	12.450
649.36	12.569
649.69	12.669
650.02	12.750
650.35	12.833
650.68	12.907
651.01	12.887
651.34	12.928
651.67	12.926
652.00	12.876
652.33	12.832
652.66	12.765
652.99	12.661
653.31	12.550
653.64	12.414
653.97	12.221
654.30	11.999
654.63	11.805
654.96	11.583
655.29	11.334
655.62	11.036
655.95	10.765
656.28	10.519
656.61	10.207
656.94	9.957
657.27	9.656
657.60	9.352
657.92	9.078
658.25	8.794
658.58	8.519
658.91	8.275
659.24	8.055
659.57	7.830
659.90	7.610
660.23	7.408
660.55	7.173
660.88	6.982
661.21	6.810
661.54	6.597
661.87	6.421
662.20	6.221
662.52	6.064
662.85	5.905
663.18	5.700
663.51	5.520
663.84	5.394
664.16	5.253
664.49	5.080
664.82	4.947
665.15	4.815
665.48	4.682
665.80	4.549
666.13	4.398
666.46	4.303
666.79	4.185
667.12	4.088
667.44	4.001
667.77	3.880
668.10	3.794
668.43	3.657
668.75	3.614
669.08	3.517
669.41	3.457
669.73	3.404
670.06	3.293
670.39	3.229
670.72	3.152
671.04	3.116
671.37	3.048
671.70	3.003
672.02	2.967
672.35	2.914
672.68	2.836
673.00	2.834
673.33	2.794
673.66	2.747
673.98	2.714
674.31	2.734
674.64	2.676
674.96	2.654
675.29	2.652
675.62	2.631
675.94	2.610
676.27	2.578
676.60	2.558
676.92	2.546
677.25	2.532
677.58	2.550
677.90	2.532
678.23	2.525
678.55	2.487
678.88	2.490
679.21	2.461
679.53	2.465
679.86	2.429
680.18	2.400
680.51	2.383
680.83	2.386
681.16	2.356
681.49	2.353
681.81	2.319
682.14	2.294
682.46	2.275
682.79	2.261
683.11	2.252
683.44	2.243
683.76	2.201
684.09	2.170
684.41	2.163
684.74	2.124
685.06	2.122
685.39	2.109
685.71	2.107
686.04	2.078
686.36	2.012
686.69	2.059
687.01	2.042
687.34	2.034
687.66	2.010
687.99	1.965
688.31	1.970
688.64	1.948
688.96	1.935
689.29	1.887
689.61	1.880
689.93	1.822
690.26	1.796
690.58	1.798
690.91	1.738
691.23	1.757
691.56	1.667
691.88	1.635
692.20	1.575
692.53	1.511
692.85	1.500
693.18	1.435
693.50	1.412
693.82	1.337
694.15	1.289
694.47	1.242
694.79	1.170
695.12	1.115
695.44	1.014
695.76	0.981
696.09	0.932
696.41	0.863
696.73	0.834
697.06	0.752
697.38	0.696
697.70	0.603
698.03	0.585
698.35	0.502
698.67	0.471
699.00	0.395
699.32	0.334
699.64	0.328
699.97	0.260
700.29	0.187
700.61	0.153
700.93	0.100
701.26	0.102
701.58	0.028
701.90	0.002
702.22	-0.038
702.55	-0.078
702.87	-0.069
703.19	-0.101
703.51	-0.111
703.84	-0.133
704.16	-0.167
704.48	-0.168
704.80	-0.183
705.13	-0.200
705.45	-0.181
705.77	-0.224
706.09	-0.249
706.41	-0.245
706.74	-0.255
707.06	-0.270
707.38	-0.277
707.70	-0.296
708.02	-0.290
708.34	-0.356
708.67	-0.325
708.99	-0.339
709.31	-0.349
709.63	-0.350
709.95	-0.339
710.27	-0.325
710.59	-0.364
710.92	-0.371
711.24	-0.372
711.56	-0.385
711.88	-0.417
712.20	-0.392
712.52	-0.385
712.84	-0.358
713.16	-0.377
713.48	-0.358
713.80	-0.415
714.12	-0.381
714.45	-0.414
714.77	-0.436
715.09	-0.436
715.41	-0.413
715.73	-0.456
716.05	-0.441
716.37	-0.452
716.69	-0.456
717.01	-0.453
717.33	-0.493
717.65	-0.445
717.97	-0.506
718.29	-0.530
718.61	-0.525
718.93	-0.512
719.25	-0.520
719.57	-0.522
719.89	-0.537
720.21	-0.523
720.53	-0.525
720.85	-0.575
721.17	-0.532
721.49	-0.595
721.81	-0.592
722.13	-0.588
722.45	-0.611
722.77	-0.572
723.09	-0.619
723.41	-0.653
723.72	-0.714
724.04	-0.601
724.36	-0.719
724.68	-0.709
725.00	-0.654
725.32	-0.736
725.64	-0.734
725.96	-0.728
726.28	-0.735
726.60	-0.774
726.91	-0.760
727.23	-0.756
727.55	-0.768
727.87	-0.835
728.19	-0.849
728.51	-0.865
728.83	-0.838
729.14	-0.828
729.46	-0.781
729.78	-0.805
730.10	-0.918
730.42	-0.902
730.74	-1.020
731.05	-0.895
731.37	-0.792
731.69	-0.850
732.01	-1.039
732.33	-1.051
732.64	-0.925
732.96	-0.982
733.28	-0.931
733.60	-0.901
733.92	-0.906
734.23	-0.999
734.55	-1.013
734.87	-0.975
735.19	-1.023
735.50	-0.972
735.82	-0.998
736.14	-0.986
736.45	-0.922
736.77	-1.053
737.09	-0.991
737.41	-1.036
737.72	-0.941
738.04	-1.044
738.36	-1.016
738.67	-1.005
738.99	-1.012
739.31	-0.954
739.63	-0.978
739.94	-1.005
740.26	-0.931
740.58	-0.990
740.89	-0.957
741.21	-0.942
741.52	-0.916
741.84	-0.907
742.16	-0.998
742.47	-1.008
742.79	-1.000
743.11	-0.913
743.42	-0.955
743.74	-0.861
744.05	-0.900
744.37	-0.868
744.69	-0.929
745.00	-0.844
745.32	-0.787
745.63	-0.872
745.95	-0.881
746.27	-0.811
746.58	-0.841
746.90	-0.864
747.21	-0.897
747.53	-0.859
747.84	-0.860
748.16	-0.825
748.47	-0.900
748.79	-0.840
749.10	-0.804
749.42	-0.855
749.74	-0.809
750.05	-0.854
750.37	-0.788
750.68	-0.803
751.00	-0.804
751.31	-0.770
751.62	-0.800
751.94	-0.764
752.25	-0.796
752.57	-0.752
752.88	-0.805
753.20	-0.822
753.51	-0.833
753.83	-0.771
754.14	-0.763
754.46	-0.758
754.77	-0.767
755.08	-0.812
755.40	-0.736
755.71	-0.745
756.03	-0.732
756.34	-0.699
756.66	-0.738
756.97	-0.703
757.28	-0.646
757.60	-0.707
757.91	-0.741
758.22	-0.710
758.54	-0.691
758.85	-0.729
759.17	-0.703
759.48	-0.680
759.79	-0.682
760.11	-0.718
760.42	-0.676
760.73	-0.631
761.05	-0.704
761.36	-0.700
761.67	-0.646
761.99	-0.664
762.30	-0.645
762.61	-0.686
762.92	-0.687
763.24	-0.672
763.55	-0.693
763.86	-0.737
764.18	-0.634
764.49	-0.634
764.80	-0.665
765.11	-0.668
765.43	-0.667
765.74	-0.673
766.05	-0.630
766.36	-0.633
766.68	-0.668
766.99	-0.636
767.30	-0.637
767.61	-0.666
767.93	-0.646
768.24	-0.637
768.55	-0.658
768.86	-0.713
769.17	-0.664
769.49	-0.698
769.80	-0.583
770.11	-0.639
770.42	-0.660
770.73	-0.662
771.04	-0.668
771.36	-0.716
771.67	-0.616
771.98	-0.673
772.29	-0.630
772.60	-0.644
772.91	-0.742
773.22	-0.639
773.54	-0.651
773.85	-0.681
774.16	-0.680
774.47	-0.665
774.78	-0.681
775.09	-0.690
775.40	-0.687
775.71	-0.745
776.02	-0.640
776.33	-0.695
776.64	-0.752
776.96	-0.708
777.27	-0.684
777.58	-0.714
777.89	-0.741
778.20	-0.761
778.51	-0.681
778.82	-0.765
779.13	-0.724
779.44	-0.759
779.75	-0.783
780.06	-0.776
780.37	-0.812
780.68	-0.745
780.99	-0.778
781.30	-0.804
781.61	-0.729
781.92	-0.781
782.23	-0.792
782.54	-0.804
782.85	-0.875
783.16	-0.824
783.47	-0.737
783.78	-0.804
784.08	-0.899
784.39	-0.862
784.70	-0.893
785.01	-0.878
785.32	-0.854
785.63	-0.882
785.94	-0.884
786.25	-0.933
786.56	-0.942
786.87	-0.937
787.18	-0.907
787.48	-0.935
787.79	-0.901
788.10	-0.944
788.41	-0.992
788.72	-0.939
789.03	-0.950
789.34	-0.991
789.64	-0.936
789.95	-0.946
790.26	-1.016
790.57	-1.011
790.88	-1.002
791.19	-1.026
791.49	-1.139
791.80	-1.095
792.11	-1.038
792.42	-1.078
792.73	-1.096
793.03	-1.076
793.34	-1.104
793.65	-1.124
793.96	-1.082
794.27	-1.040
794.57	-1.199
794.88	-1.125
795.19	-1.155
795.50	-1.185
795.80	-1.250
796.11	-1.211
796.42	-1.169
796.72	-1.220
797.03	-1.240
797.34	-1.279
797.65	-1.327
797.95	-1.347
798.26	-1.248
798.57	-1.208
798.87	-1.278
799.18	-1.373
799.49	-1.275
799.79	-1.409
800.10	-1.376
800.41	-1.443
800.71	-1.468
801.02	-1.434
801.33	-1.415
801.63	-1.501
801.94	-1.429
802.24	-1.467
802.55	-1.561
802.86	-1.384
803.16	-1.600
803.47	-1.593
803.77	-1.465
804.08	-1.631
804.39	-1.715
804.69	-1.660
805.00	-1.521
805.30	-1.602
805.61	-1.817
805.91	-1.644
806.22	-1.832
806.53	-1.639
806.83	-1.908
807.14	-1.930
807.44	-1.761
807.75	-1.805
808.05	-1.787
808.36	-1.817
808.66	-1.858
808.97	-1.896
809.27	-1.750
809.58	-1.864
809.88	-1.831
810.19	-1.827
810.49	-1.932
810.80	-1.932
811.10	-1.979
811.41	-1.879
811.71	-2.207
812.01	-1.990
812.32	-2.147
812.62	-2.183
812.93	-2.085
813.23	-2.116
813.54	-2.062
813.84	-2.114
814.14	-2.337
814.45	-2.242
814.75	-2.303
815.06	-2.283
815.36	-2.253
815.66	-2.408
815.97	-2.507
816.27	-2.363
816.58	-2.361
816.88	-2.457
817.18	-2.589
817.49	-2.620
817.79	-2.524
818.09	-2.672
818.40	-2.832
818.70	-2.683
819.00	-2.654
819.31	-2.742
819.61	-2.780
819.91	-2.820
820.21	-2.897
820.52	-2.776
820.82	-3.124
821.12	-2.711
821.43	-2.989
821.73	-3.258
822.03	-3.148
822.33	-2.907
822.64	-3.168
822.94	-3.259
823.24	-3.202
823.54	-3.130
823.85	-3.333
824.15	-3.399
824.45	-3.430
824.75	-3.481
825.05	-3.766
825.36	-3.641
825.66	-3.610
825.96	-3.591
826.26	-3.802
826.56	-3.620
826.87	-4.035
827.17	-3.807
827.47	-3.777
827.77	-4.266
828.07	-4.357
828.37	-4.125
828.67	-4.191
828.98	-4.399
829.28	-4.406
829.58	-4.639
829.88	-4.406
830.18	-4.572
830.48	-4.744
830.78	-5.321
831.08	-4.853
831.38	-4.738
831.69	-4.894
831.99	-5.845
832.29	-5.497
832.59	-5.291
832.89	-5.042
833.19	-5.846
833.49	-5.821
833.79	-5.987
834.09	-5.535
834.39	-6.166
834.69	-6.379
834.99	-5.781
835.29	-6.444
835.59	-7.090
835.89	-6.614
836.19	-6.724
836.49	-6.940
836.79	-7.417
837.09	-7.879
837.39	-8.066
837.69	-7.234
837.99	-8.504
838.29	-8.887
838.59	-8.562
838.89	-8.281
839.19	-8.263
839.49	-8.658
839.79	-8.384
840.09	-9.843
840.39	-9.012
840.68	-9.859
840.98	-9.755
841.28	-10.303
841.58	-9.961
841.88	-11.055
842.18	-10.357
842.48	-11.024
842.78	-12.651
843.08	-11.929
843.37	-11.788
843.67	-12.311
843.97	-12.140
844.27	-12.763
844.57	-13.949
844.87	-14.073
845.16	-13.310
845.46	-13.940
845.76	-15.495
846.06	-15.487
846.36	-16.760
846.66	-14.983
846.95	-17.855
847.25	-15.449
847.55	-16.007
847.85	-19.127
848.14	-18.538
848.44	-17.083
848.74	-18.893
849.04	-18.289
849.33	-18.484
849.63	-20.320
849.93	-19.869
850.23	-22.432
850.52	-21.413
850.82	-22.312
851.12	-24.010
851.42	-24.649
851.71	-22.296
852.01	-28.704
852.31	-26.191
852.60	-27.176
852.90	-27.992
853.20	-28.750
853.49	-27.260
853.79	-30.730
854.09	-27.968
854.38	-31.061
854.68	-30.224
854.98	-30.632
855.27	-26.823
855.57	-36.379
855.86	-31.554
856.16	-33.153
856.46	-33.144
856.75	-34.338
857.05	-35.083
857.34	-34.901
857.64	-37.236
857.94	-35.624
858.23	-36.680
858.53	-34.670
858.82	-38.141
859.12	-39.355
859.41	-31.689
859.71	-39.884
860.01	-36.598
860.30	-39.660
860.60	-41.433
860.89	-40.368
861.19	-38.850
861.48	-39.339
861.78	-35.207
862.07	-40.394
862.37	-38.582
862.66	-42.968
862.96	-38.652
863.25	-43.467
863.55	-34.127
863.84	-41.095
864.13	-42.571
864.43	-38.052
864.72	-39.808
865.02	-40.347
865.31	-41.683
865.61	-40.439
865.90	-41.053
866.19	-41.472
866.49	-38.946
866.78	-38.547
867.08	-39.952
867.37	-41.995
867.66	-39.097
867.96	-39.677
868.25	-36.514
868.55	-40.233
868.84	-44.969
869.13	-42.604
869.43	-40.263
869.72	-40.010
870.01	-42.836
870.31	-41.059
870.60	-42.915
870.89	-38.775
871.19	-35.568
871.48	-36.748
871.77	-38.401
872.07	-42.813
872.36	-41.555
872.65	-38.981
872.94	-44.102
873.24	-39.970
873.53	-41.085
873.82	-39.877
874.11	-43.035
874.41	-44.107
874.70	-48.945
>>>>>End Processed Spectral Data<<<<<
