SpectraSuite Data File
++++++++++++++++++++++++++++++++++++
Date: Tue Apr 28 18:56:08 BST 2015
User: mpfc3
Dark Spectrum Present: Yes
Reference Spectrum Present: Yes
Number of Sampled Component Spectra: 1
Spectrometers: USB2E3636
Integration Time (usec): 30000 (USB2E3636)
Spectra Averaged: 100 (USB2E3636)
Boxcar Smoothing: 0 (USB2E3636)
Correct for Electrical Dark: No (USB2E3636)
Strobe/Lamp Enabled: No (USB2E3636)
Correct for Detector Non-linearity: No (USB2E3636)
Correct for Stray Light: No (USB2E3636)
Number of Pixels in Processed Spectrum: 2048
>>>>>Begin Processed Spectral Data<<<<<
180.28	0.000
180.65	173.624
181.02	180.180
181.39	183.264
181.77	179.722
182.14	199.575
182.51	195.556
182.88	183.966
183.25	190.612
183.63	188.589
184.00	213.735
184.37	196.809
184.74	172.421
185.11	215.247
185.49	197.034
185.86	171.058
186.23	206.928
186.60	212.736
186.97	178.927
187.35	203.625
187.72	202.461
188.09	200.225
188.46	202.754
188.83	187.037
189.20	-860.000
189.58	-47.814
189.95	-52.900
190.32	-53.987
190.69	-58.633
191.06	-55.587
191.43	-55.846
191.81	-55.540
192.18	-50.987
192.55	-51.862
192.92	-52.647
193.29	-53.890
193.66	-55.469
194.03	-53.776
194.41	-53.972
194.78	-55.286
195.15	-50.068
195.52	-47.746
195.89	-50.853
196.26	-50.575
196.63	-57.133
197.01	-47.035
197.38	-47.759
197.75	-48.845
198.12	-54.921
198.49	-56.125
198.86	-56.324
199.23	-54.954
199.60	-56.974
199.98	-50.564
200.35	-60.088
200.72	-52.149
201.09	-55.282
201.46	-57.289
201.83	-60.429
202.20	-49.688
202.57	-56.054
202.94	-55.516
203.31	-47.856
203.69	-47.967
204.06	-56.638
204.43	-52.025
204.80	-54.140
205.17	-51.059
205.54	-51.537
205.91	-51.249
206.28	-54.703
206.65	-55.789
207.02	-58.595
207.39	-64.840
207.76	-52.776
208.14	-52.586
208.51	-58.925
208.88	-53.344
209.25	-55.839
209.62	-54.634
209.99	-52.994
210.36	-60.060
210.73	-55.160
211.10	-52.632
211.47	-59.482
211.84	-60.703
212.21	-60.979
212.58	-61.992
212.95	-55.349
213.32	-57.686
213.69	-67.554
214.06	-58.145
214.43	-58.340
214.80	-57.943
215.17	-53.277
215.55	-55.233
215.92	-54.946
216.29	-61.435
216.66	-63.336
217.03	-53.276
217.40	-62.783
217.77	-57.658
218.14	-63.008
218.51	-67.969
218.88	-56.525
219.25	-61.396
219.62	-62.353
219.99	-60.582
220.36	-59.187
220.73	-62.942
221.10	-60.446
221.47	-66.582
221.84	-62.857
222.21	-71.529
222.58	-61.304
222.95	-66.252
223.32	-65.381
223.69	-68.906
224.06	-67.869
224.43	-71.574
224.80	-74.009
225.17	-69.060
225.54	-64.633
225.91	-59.187
226.27	-52.301
226.64	-67.673
227.01	-73.418
227.38	-64.148
227.75	-63.802
228.12	-71.034
228.49	-72.112
228.86	-68.118
229.23	-68.072
229.60	-73.812
229.97	-69.175
230.34	-67.444
230.71	-68.194
231.08	-74.314
231.45	-77.255
231.82	-66.217
232.19	-84.381
232.56	-66.575
232.93	-74.166
233.30	-63.421
233.66	-81.873
234.03	-69.669
234.40	-69.972
234.77	-68.485
235.14	-83.702
235.51	-70.588
235.88	-71.863
236.25	-78.958
236.62	-78.025
236.99	-79.209
237.36	-77.721
237.73	-72.000
238.09	-71.047
238.46	-83.576
238.83	-84.260
239.20	-78.858
239.57	-84.671
239.94	-80.441
240.31	-84.091
240.68	-65.068
241.05	-79.027
241.41	-69.549
241.78	-78.386
242.15	-83.042
242.52	-75.681
242.89	-76.482
243.26	-78.838
243.63	-81.621
244.00	-80.994
244.36	-79.372
244.73	-81.346
245.10	-84.749
245.47	-80.407
245.84	-79.938
246.21	-80.246
246.58	-74.649
246.94	-73.556
247.31	-80.105
247.68	-81.701
248.05	-83.704
248.42	-77.010
248.79	-88.119
249.15	-88.792
249.52	-74.409
249.89	-77.861
250.26	-77.268
250.63	-90.238
251.00	-81.015
251.36	-89.480
251.73	-81.276
252.10	-84.567
252.47	-75.335
252.84	-97.209
253.20	-86.483
253.57	-94.084
253.94	-85.841
254.31	-78.760
254.68	-74.564
255.05	-86.828
255.41	-92.325
255.78	-82.536
256.15	-85.698
256.52	-88.596
256.88	-84.234
257.25	-84.989
257.62	-97.171
257.99	-96.437
258.36	-107.643
258.72	-91.448
259.09	-83.424
259.46	-103.856
259.83	-94.391
260.19	-86.409
260.56	-89.013
260.93	-86.199
261.30	-97.098
261.67	-94.000
262.03	-86.374
262.40	-89.568
262.77	-93.488
263.14	-86.052
263.50	-84.407
263.87	-89.688
264.24	-81.326
264.61	-92.677
264.97	-91.578
265.34	-78.587
265.71	-93.808
266.07	-98.305
266.44	-82.077
266.81	-95.152
267.18	-96.778
267.54	-97.735
267.91	-87.973
268.28	-80.534
268.64	-95.366
269.01	-91.190
269.38	-96.502
269.75	-97.741
270.11	-95.652
270.48	-102.384
270.85	-84.386
271.21	-95.858
271.58	-96.377
271.95	-84.350
272.32	-95.400
272.68	-92.593
273.05	-84.396
273.42	-100.872
273.78	-91.919
274.15	-95.343
274.52	-82.550
274.88	-92.935
275.25	-89.273
275.62	-92.439
275.98	-92.353
276.35	-97.919
276.72	-88.072
277.08	-94.337
277.45	-101.006
277.82	-105.039
278.18	-102.938
278.55	-99.372
278.92	-88.953
279.28	-99.878
279.65	-83.199
280.01	-97.359
280.38	-95.966
280.75	-98.108
281.11	-87.101
281.48	-88.480
281.85	-89.189
282.21	-105.026
282.58	-89.243
282.95	-81.136
283.31	-98.254
283.68	-95.926
284.04	-81.859
284.41	-100.127
284.78	-75.854
285.14	-86.258
285.51	-80.202
285.87	-102.846
286.24	-91.646
286.61	-92.299
286.97	-87.529
287.34	-90.000
287.70	-80.189
288.07	-88.661
288.44	-79.435
288.80	-83.977
289.17	-95.838
289.53	-95.215
289.90	-101.358
290.26	-93.069
290.63	-102.346
291.00	-104.140
291.36	-94.052
291.73	-95.148
292.09	-96.663
292.46	-97.704
292.82	-71.602
293.19	-96.829
293.56	-90.555
293.92	-85.261
294.29	-90.711
294.65	-85.280
295.02	-87.045
295.38	-79.314
295.75	-87.168
296.11	-103.594
296.48	-92.391
296.84	-79.451
297.21	-80.045
297.57	-100.483
297.94	-93.885
298.30	-91.394
298.67	-87.232
299.04	-79.139
299.40	-83.428
299.77	-91.236
300.13	-78.733
300.50	-90.443
300.86	-103.976
301.23	-82.867
301.59	-82.832
301.96	-78.842
302.32	-84.181
302.69	-96.158
303.05	-76.072
303.42	-95.735
303.78	-89.054
304.14	-82.449
304.51	-78.128
304.87	-81.570
305.24	-88.724
305.60	-81.618
305.97	-83.204
306.33	-82.471
306.70	-66.699
307.06	-81.529
307.43	-76.495
307.79	-75.751
308.16	-75.910
308.52	-75.152
308.88	-76.061
309.25	-86.464
309.61	-74.021
309.98	-78.172
310.34	-87.624
310.71	-74.419
311.07	-77.064
311.44	-82.199
311.80	-74.059
312.16	-66.601
312.53	-77.583
312.89	-76.027
313.26	-73.480
313.62	-59.054
313.98	-67.437
314.35	-70.078
314.71	-66.359
315.08	-69.070
315.44	-57.293
315.80	-67.164
316.17	-67.697
316.53	-57.876
316.90	-66.485
317.26	-67.748
317.62	-69.598
317.99	-74.500
318.35	-69.972
318.72	-65.053
319.08	-67.106
319.44	-69.487
319.81	-69.340
320.17	-64.286
320.53	-62.275
320.90	-63.922
321.26	-69.009
321.62	-60.745
321.99	-62.026
322.35	-60.316
322.72	-62.848
323.08	-59.710
323.44	-58.871
323.81	-49.888
324.17	-67.115
324.53	-54.720
324.90	-56.778
325.26	-55.440
325.62	-60.460
325.99	-56.545
326.35	-51.125
326.71	-52.495
327.08	-49.590
327.44	-47.838
327.80	-49.595
328.16	-44.437
328.53	-57.598
328.89	-50.623
329.25	-48.736
329.62	-41.091
329.98	-38.839
330.34	-40.107
330.71	-41.687
331.07	-47.959
331.43	-41.662
331.79	-36.212
332.16	-40.119
332.52	-40.992
332.88	-38.584
333.24	-40.098
333.61	-37.194
333.97	-36.626
334.33	-39.630
334.70	-35.612
335.06	-34.549
335.42	-37.886
335.78	-35.233
336.15	-36.409
336.51	-31.265
336.87	-35.987
337.23	-32.920
337.60	-33.455
337.96	-31.230
338.32	-30.660
338.68	-28.183
339.04	-30.109
339.41	-30.631
339.77	-27.859
340.13	-29.343
340.49	-24.880
340.86	-29.939
341.22	-30.028
341.58	-25.668
341.94	-27.980
342.30	-25.840
342.67	-27.083
343.03	-26.417
343.39	-22.242
343.75	-23.247
344.11	-25.471
344.48	-26.709
344.84	-24.974
345.20	-22.511
345.56	-23.017
345.92	-22.997
346.28	-21.748
346.65	-21.171
347.01	-21.247
347.37	-23.132
347.73	-22.097
348.09	-20.894
348.45	-19.261
348.82	-19.397
349.18	-19.317
349.54	-20.154
349.90	-19.865
350.26	-18.778
350.62	-17.966
350.98	-16.933
351.35	-19.766
351.71	-18.567
352.07	-16.875
352.43	-16.578
352.79	-16.915
353.15	-16.313
353.51	-17.413
353.87	-14.604
354.24	-14.910
354.60	-15.367
354.96	-14.292
355.32	-15.414
355.68	-16.159
356.04	-14.741
356.40	-12.505
356.76	-15.171
357.12	-12.599
357.48	-15.085
357.85	-13.590
358.21	-13.823
358.57	-13.910
358.93	-13.582
359.29	-13.097
359.65	-13.474
360.01	-12.447
360.37	-11.095
360.73	-12.424
361.09	-12.925
361.45	-11.107
361.81	-11.368
362.17	-11.778
362.53	-12.040
362.89	-11.247
363.25	-11.542
363.62	-11.269
363.98	-11.626
364.34	-10.497
364.70	-10.035
365.06	-9.357
365.42	-9.716
365.78	-9.711
366.14	-9.311
366.50	-9.651
366.86	-8.273
367.22	-9.599
367.58	-8.937
367.94	-9.123
368.30	-9.618
368.66	-8.070
369.02	-9.255
369.38	-7.003
369.74	-8.773
370.10	-8.122
370.46	-8.089
370.82	-7.729
371.18	-8.290
371.54	-7.074
371.90	-7.783
372.26	-7.096
372.62	-6.889
372.98	-7.942
373.33	-6.996
373.69	-6.790
374.05	-6.852
374.41	-7.548
374.77	-6.991
375.13	-6.053
375.49	-5.511
375.85	-6.245
376.21	-6.431
376.57	-6.028
376.93	-6.342
377.29	-5.425
377.65	-5.636
378.01	-5.429
378.37	-5.220
378.73	-5.200
379.08	-5.012
379.44	-5.311
379.80	-5.122
380.16	-4.953
380.52	-4.577
380.88	-4.564
381.24	-4.235
381.60	-4.582
381.96	-3.468
382.32	-3.462
382.67	-3.507
383.03	-3.951
383.39	-2.813
383.75	-3.928
384.11	-3.466
384.47	-3.295
384.83	-3.066
385.19	-3.281
385.54	-3.070
385.90	-2.667
386.26	-2.664
386.62	-2.551
386.98	-2.116
387.34	-1.729
387.70	-1.484
388.05	-2.220
388.41	-1.428
388.77	-1.538
389.13	-1.116
389.49	-0.843
389.85	-0.210
390.20	-0.415
390.56	-0.498
390.92	-0.368
391.28	-0.682
391.64	-0.524
391.99	-0.251
392.35	-0.099
392.71	0.083
393.07	0.403
393.43	-0.026
393.78	0.543
394.14	0.886
394.50	0.610
394.86	0.673
395.22	1.319
395.57	1.397
395.93	1.567
396.29	1.393
396.65	1.735
397.00	2.148
397.36	2.113
397.72	1.961
398.08	2.422
398.43	2.939
398.79	2.935
399.15	2.856
399.51	3.280
399.86	2.978
400.22	3.280
400.58	3.365
400.94	3.890
401.29	3.760
401.65	4.068
402.01	4.343
402.37	4.475
402.72	4.178
403.08	4.505
403.44	4.827
403.79	4.913
404.15	5.191
404.51	4.983
404.86	5.098
405.22	5.519
405.58	5.649
405.94	6.016
406.29	6.313
406.65	6.071
407.01	6.196
407.36	6.148
407.72	6.742
408.08	6.161
408.43	6.670
408.79	6.856
409.15	6.786
409.50	7.222
409.86	6.979
410.22	7.533
410.57	7.441
410.93	7.566
411.29	8.089
411.64	8.139
412.00	8.357
412.35	8.339
412.71	8.450
413.07	8.415
413.42	8.378
413.78	8.640
414.14	8.875
414.49	8.774
414.85	9.286
415.20	9.651
415.56	9.461
415.92	9.668
416.27	9.655
416.63	9.942
416.98	9.918
417.34	10.371
417.70	10.354
418.05	10.357
418.41	10.437
418.76	10.703
419.12	10.771
419.47	10.941
419.83	11.400
420.19	11.428
420.54	11.555
420.90	11.612
421.25	11.876
421.61	11.745
421.96	11.878
422.32	12.254
422.67	12.100
423.03	12.331
423.39	12.498
423.74	12.680
424.10	12.528
424.45	12.917
424.81	13.005
425.16	12.974
425.52	13.305
425.87	13.434
426.23	13.487
426.58	13.576
426.94	13.913
427.29	14.195
427.65	14.063
428.00	14.138
428.36	14.309
428.71	14.315
429.07	14.740
429.42	14.803
429.78	14.571
430.13	14.885
430.49	15.184
430.84	15.103
431.19	15.116
431.55	15.464
431.90	15.574
432.26	15.575
432.61	15.768
432.97	15.903
433.32	16.182
433.68	16.244
434.03	16.266
434.39	16.242
434.74	16.640
435.09	16.406
435.45	16.642
435.80	16.913
436.16	16.949
436.51	16.955
436.86	16.977
437.22	17.319
437.57	17.364
437.93	17.425
438.28	17.539
438.63	17.836
438.99	17.880
439.34	17.824
439.70	17.914
440.05	18.060
440.40	18.327
440.76	18.297
441.11	18.548
441.47	18.616
441.82	18.654
442.17	18.732
442.53	18.945
442.88	18.880
443.23	19.017
443.59	19.097
443.94	19.360
444.29	19.299
444.65	19.584
445.00	19.625
445.35	19.737
445.71	19.852
446.06	19.839
446.41	20.024
446.77	19.938
447.12	20.211
447.47	20.293
447.83	20.276
448.18	20.300
448.53	20.493
448.89	20.583
449.24	20.828
449.59	20.859
449.94	20.768
450.30	21.128
450.65	21.109
451.00	21.283
451.36	21.342
451.71	21.545
452.06	21.570
452.41	21.689
452.77	21.878
453.12	21.879
453.47	22.151
453.82	22.030
454.18	22.235
454.53	22.250
454.88	22.325
455.23	22.527
455.59	22.456
455.94	22.644
456.29	22.818
456.64	22.705
457.00	23.053
457.35	23.102
457.70	23.191
458.05	23.363
458.40	23.502
458.76	23.480
459.11	23.763
459.46	23.678
459.81	23.685
460.16	23.830
460.52	24.119
460.87	24.163
461.22	24.234
461.57	24.354
461.92	24.376
462.28	24.515
462.63	24.396
462.98	24.648
463.33	24.715
463.68	24.898
464.03	25.029
464.38	25.097
464.74	25.134
465.09	25.211
465.44	25.166
465.79	25.415
466.14	25.522
466.49	25.536
466.84	25.691
467.20	25.687
467.55	25.841
467.90	25.862
468.25	25.910
468.60	26.063
468.95	26.229
469.30	26.144
469.65	26.240
470.00	26.220
470.36	26.449
470.71	26.424
471.06	26.541
471.41	26.520
471.76	26.628
472.11	26.639
472.46	26.783
472.81	26.775
473.16	26.840
473.51	26.830
473.86	26.893
474.21	26.920
474.56	27.056
474.91	26.932
475.26	27.167
475.62	27.188
475.97	27.090
476.32	27.208
476.67	27.224
477.02	27.092
477.37	27.156
477.72	27.199
478.07	27.277
478.42	27.186
478.77	27.218
479.12	27.181
479.47	27.256
479.82	27.258
480.17	27.297
480.52	27.250
480.87	27.293
481.22	27.316
481.57	27.208
481.92	27.318
482.27	27.202
482.62	27.318
482.97	27.254
483.32	27.367
483.67	27.290
484.02	27.329
484.36	27.350
484.71	27.358
485.06	27.485
485.41	27.427
485.76	27.439
486.11	27.429
486.46	27.533
486.81	27.663
487.16	27.637
487.51	27.620
487.86	27.695
488.21	27.730
488.56	27.893
488.91	27.877
489.25	27.982
489.60	28.053
489.95	28.018
490.30	28.188
490.65	28.159
491.00	28.235
491.35	28.372
491.70	28.328
492.05	28.386
492.39	28.469
492.74	28.617
493.09	28.699
493.44	28.717
493.79	28.908
494.14	28.951
494.49	29.020
494.83	29.153
495.18	29.199
495.53	29.237
495.88	29.305
496.23	29.502
496.58	29.512
496.92	29.614
497.27	29.677
497.62	29.765
497.97	29.851
498.32	29.995
498.67	29.926
499.01	30.052
499.36	30.187
499.71	30.186
500.06	30.248
500.41	30.368
500.75	30.382
501.10	30.493
501.45	30.603
501.80	30.552
502.14	30.687
502.49	30.661
502.84	30.734
503.19	30.808
503.53	30.899
503.88	30.920
504.23	31.018
504.58	31.033
504.92	31.119
505.27	31.141
505.62	31.196
505.97	31.164
506.31	31.270
506.66	31.314
507.01	31.304
507.36	31.254
507.70	31.364
508.05	31.313
508.40	31.285
508.74	31.250
509.09	31.264
509.44	31.149
509.79	31.296
510.13	31.191
510.48	31.184
510.83	31.170
511.17	31.202
511.52	31.107
511.87	31.116
512.21	31.052
512.56	31.118
512.91	31.120
513.25	31.086
513.60	31.132
513.95	31.250
514.29	31.251
514.64	31.233
514.98	31.366
515.33	31.372
515.68	31.422
516.02	31.435
516.37	31.431
516.72	31.509
517.06	31.538
517.41	31.575
517.75	31.540
518.10	31.659
518.45	31.598
518.79	31.679
519.14	31.784
519.48	31.730
519.83	31.786
520.18	31.736
520.52	31.744
520.87	31.769
521.21	31.772
521.56	31.805
521.90	31.807
522.25	31.834
522.60	31.756
522.94	31.872
523.29	31.866
523.63	31.795
523.98	31.766
524.32	31.818
524.67	31.788
525.01	31.783
525.36	31.678
525.70	31.643
526.05	31.689
526.39	31.580
526.74	31.552
527.08	31.466
527.43	31.392
527.77	31.355
528.12	31.259
528.46	31.195
528.81	31.169
529.15	31.156
529.50	30.978
529.84	30.855
530.19	30.691
530.53	30.635
530.88	30.503
531.22	30.409
531.57	30.340
531.91	30.144
532.26	30.050
532.60	29.892
532.94	29.656
533.29	29.552
533.63	29.384
533.98	29.202
534.32	29.061
534.67	28.889
535.01	28.567
535.35	28.404
535.70	28.227
536.04	27.961
536.39	27.761
536.73	27.579
537.07	27.307
537.42	27.102
537.76	26.845
538.11	26.673
538.45	26.448
538.79	26.221
539.14	26.013
539.48	25.853
539.82	25.609
540.17	25.434
540.51	25.250
540.85	24.967
541.20	24.899
541.54	24.649
541.89	24.504
542.23	24.378
542.57	24.212
542.92	24.100
543.26	24.033
543.60	23.886
543.94	23.860
544.29	23.832
544.63	23.678
544.97	23.642
545.32	23.668
545.66	23.604
546.00	23.607
546.35	23.580
546.69	23.615
547.03	23.569
547.37	23.602
547.72	23.648
548.06	23.654
548.40	23.715
548.75	23.778
549.09	23.796
549.43	23.854
549.77	23.937
550.12	23.983
550.46	24.095
550.80	24.176
551.14	24.278
551.49	24.383
551.83	24.574
552.17	24.648
552.51	24.825
552.85	24.949
553.20	25.127
553.54	25.293
553.88	25.521
554.22	25.629
554.56	25.877
554.91	26.139
555.25	26.320
555.59	26.504
555.93	26.741
556.27	26.986
556.62	27.215
556.96	27.458
557.30	27.682
557.64	27.926
557.98	28.263
558.32	28.462
558.67	28.713
559.01	29.011
559.35	29.174
559.69	29.433
560.03	29.672
560.37	29.961
560.71	30.216
561.05	30.414
561.40	30.572
561.74	30.866
562.08	31.067
562.42	31.250
562.76	31.508
563.10	31.700
563.44	31.872
563.78	32.039
564.12	32.245
564.46	32.414
564.81	32.583
565.15	32.649
565.49	32.811
565.83	32.899
566.17	33.014
566.51	33.118
566.85	33.290
567.19	33.284
567.53	33.378
567.87	33.478
568.21	33.514
568.55	33.488
568.89	33.602
569.23	33.637
569.57	33.623
569.91	33.593
570.25	33.555
570.59	33.600
570.93	33.630
571.27	33.605
571.61	33.526
571.95	33.568
572.29	33.450
572.63	33.330
572.97	33.304
573.31	33.247
573.65	33.166
573.99	33.050
574.33	32.937
574.67	32.835
575.01	32.741
575.35	32.635
575.69	32.602
576.03	32.441
576.37	32.308
576.71	32.231
577.05	32.051
577.39	31.894
577.73	31.650
578.06	31.547
578.40	31.365
578.74	31.257
579.08	31.005
579.42	30.864
579.76	30.684
580.10	30.479
580.44	30.302
580.78	30.154
581.12	29.879
581.45	29.727
581.79	29.494
582.13	29.243
582.47	29.110
582.81	28.891
583.15	28.777
583.49	28.535
583.83	28.361
584.16	28.180
584.50	28.030
584.84	27.857
585.18	27.731
585.52	27.588
585.86	27.440
586.19	27.242
586.53	27.132
586.87	26.992
587.21	26.743
587.55	26.625
587.88	26.471
588.22	26.391
588.56	26.114
588.90	25.908
589.24	25.704
589.57	25.516
589.91	25.394
590.25	25.044
590.59	24.865
590.92	24.666
591.26	24.388
591.60	24.216
591.94	23.954
592.27	23.678
592.61	23.412
592.95	23.170
593.29	22.889
593.62	22.569
593.96	22.251
594.30	21.953
594.64	21.671
594.97	21.331
595.31	20.944
595.65	20.614
595.98	20.173
596.32	19.778
596.66	19.368
597.00	18.925
597.33	18.511
597.67	18.020
598.01	17.534
598.34	17.049
598.68	16.663
599.02	16.155
599.35	15.733
599.69	15.363
600.03	14.948
600.36	14.583
600.70	14.242
601.03	13.835
601.37	13.556
601.71	13.296
602.04	12.951
602.38	12.663
602.72	12.383
603.05	12.100
603.39	11.879
603.72	11.561
604.06	11.383
604.40	11.101
604.73	10.790
605.07	10.543
605.40	10.223
605.74	9.965
606.08	9.702
606.41	9.444
606.75	9.138
607.08	8.793
607.42	8.557
607.75	8.245
608.09	8.006
608.42	7.742
608.76	7.413
609.10	7.177
609.43	6.868
609.77	6.645
610.10	6.367
610.44	6.136
610.77	5.854
611.11	5.626
611.44	5.377
611.78	5.136
612.11	4.871
612.45	4.631
612.78	4.464
613.12	4.236
613.45	4.012
613.79	3.820
614.12	3.629
614.46	3.454
614.79	3.296
615.13	3.101
615.46	2.996
615.79	2.793
616.13	2.681
616.46	2.561
616.80	2.446
617.13	2.325
617.47	2.255
617.80	2.131
618.13	2.056
618.47	1.959
618.80	1.873
619.14	1.795
619.47	1.747
619.81	1.681
620.14	1.601
620.47	1.566
620.81	1.478
621.14	1.453
621.47	1.428
621.81	1.359
622.14	1.317
622.48	1.259
622.81	1.232
623.14	1.190
623.48	1.178
623.81	1.112
624.14	1.069
624.48	1.058
624.81	1.054
625.14	1.039
625.48	1.017
625.81	0.995
626.14	0.991
626.48	0.991
626.81	0.980
627.14	0.979
627.48	0.958
627.81	0.990
628.14	1.020
628.47	1.022
628.81	1.064
629.14	1.093
629.47	1.090
629.81	1.169
630.14	1.190
630.47	1.213
630.80	1.274
631.14	1.303
631.47	1.396
631.80	1.478
632.13	1.567
632.47	1.637
632.80	1.719
633.13	1.836
633.46	1.921
633.79	2.061
634.13	2.156
634.46	2.321
634.79	2.453
635.12	2.605
635.45	2.754
635.79	2.939
636.12	3.098
636.45	3.292
636.78	3.492
637.11	3.680
637.45	3.886
637.78	4.122
638.11	4.372
638.44	4.592
638.77	4.832
639.10	5.060
639.44	5.353
639.77	5.587
640.10	5.864
640.43	6.120
640.76	6.360
641.09	6.666
641.42	6.938
641.75	7.180
642.08	7.500
642.42	7.743
642.75	8.018
643.08	8.272
643.41	8.524
643.74	8.797
644.07	9.031
644.40	9.340
644.73	9.550
645.06	9.808
645.39	10.052
645.72	10.285
646.05	10.524
646.38	10.750
646.72	10.944
647.05	11.174
647.38	11.333
647.71	11.576
648.04	11.695
648.37	11.883
648.70	12.034
649.03	12.166
649.36	12.271
649.69	12.390
650.02	12.469
650.35	12.579
650.68	12.612
651.01	12.626
651.34	12.638
651.67	12.648
652.00	12.597
652.33	12.519
652.66	12.499
652.99	12.361
653.31	12.273
653.64	12.112
653.97	11.907
654.30	11.729
654.63	11.519
654.96	11.284
655.29	11.040
655.62	10.792
655.95	10.524
656.28	10.209
656.61	9.980
656.94	9.705
657.27	9.412
657.60	9.132
657.92	8.869
658.25	8.618
658.58	8.339
658.91	8.112
659.24	7.864
659.57	7.627
659.90	7.433
660.23	7.215
660.55	7.025
660.88	6.799
661.21	6.607
661.54	6.391
661.87	6.243
662.20	6.112
662.52	5.899
662.85	5.751
663.18	5.539
663.51	5.411
663.84	5.307
664.16	5.116
664.49	4.964
664.82	4.827
665.15	4.703
665.48	4.545
665.80	4.435
666.13	4.295
666.46	4.217
666.79	4.084
667.12	3.968
667.44	3.874
667.77	3.784
668.10	3.708
668.43	3.559
668.75	3.526
669.08	3.435
669.41	3.359
669.73	3.280
670.06	3.186
670.39	3.153
670.72	3.086
671.04	3.037
671.37	2.955
671.70	2.910
672.02	2.867
672.35	2.832
672.68	2.785
673.00	2.761
673.33	2.725
673.66	2.681
673.98	2.630
674.31	2.628
674.64	2.595
674.96	2.558
675.29	2.562
675.62	2.577
675.94	2.512
676.27	2.501
676.60	2.483
676.92	2.472
677.25	2.440
677.58	2.437
677.90	2.441
678.23	2.407
678.55	2.423
678.88	2.400
679.21	2.384
679.53	2.403
679.86	2.396
680.18	2.335
680.51	2.319
680.83	2.314
681.16	2.291
681.49	2.274
681.81	2.255
682.14	2.211
682.46	2.203
682.79	2.176
683.11	2.183
683.44	2.176
683.76	2.119
684.09	2.110
684.41	2.086
684.74	2.095
685.06	2.062
685.39	2.070
685.71	2.049
686.04	2.023
686.36	1.984
686.69	1.985
687.01	1.956
687.34	1.964
687.66	1.952
687.99	1.925
688.31	1.915
688.64	1.884
688.96	1.875
689.29	1.836
689.61	1.791
689.93	1.771
690.26	1.747
690.58	1.707
690.91	1.687
691.23	1.663
691.56	1.614
691.88	1.576
692.20	1.513
692.53	1.452
692.85	1.432
693.18	1.396
693.50	1.340
693.82	1.291
694.15	1.207
694.47	1.168
694.79	1.110
695.12	1.064
695.44	0.996
695.76	0.921
696.09	0.868
696.41	0.809
696.73	0.752
697.06	0.695
697.38	0.642
697.70	0.559
698.03	0.550
698.35	0.444
698.67	0.417
699.00	0.325
699.32	0.286
699.64	0.262
699.97	0.227
700.29	0.176
700.61	0.134
700.93	0.076
701.26	0.056
701.58	0.032
701.90	-0.036
702.22	-0.069
702.55	-0.097
702.87	-0.059
703.19	-0.125
703.51	-0.154
703.84	-0.121
704.16	-0.189
704.48	-0.148
704.80	-0.204
705.13	-0.219
705.45	-0.232
705.77	-0.231
706.09	-0.274
706.41	-0.292
706.74	-0.274
707.06	-0.309
707.38	-0.312
707.70	-0.332
708.02	-0.341
708.34	-0.349
708.67	-0.353
708.99	-0.359
709.31	-0.397
709.63	-0.335
709.95	-0.347
710.27	-0.377
710.59	-0.381
710.92	-0.357
711.24	-0.412
711.56	-0.388
711.88	-0.471
712.20	-0.438
712.52	-0.423
712.84	-0.368
713.16	-0.445
713.48	-0.420
713.80	-0.438
714.12	-0.453
714.45	-0.447
714.77	-0.477
715.09	-0.435
715.41	-0.409
715.73	-0.461
716.05	-0.500
716.37	-0.517
716.69	-0.509
717.01	-0.500
717.33	-0.474
717.65	-0.462
717.97	-0.524
718.29	-0.517
718.61	-0.503
718.93	-0.572
719.25	-0.565
719.57	-0.529
719.89	-0.581
720.21	-0.603
720.53	-0.583
720.85	-0.551
721.17	-0.564
721.49	-0.653
721.81	-0.671
722.13	-0.661
722.45	-0.655
722.77	-0.641
723.09	-0.637
723.41	-0.775
723.72	-0.768
724.04	-0.711
724.36	-0.741
724.68	-0.776
725.00	-0.705
725.32	-0.736
725.64	-0.791
725.96	-0.773
726.28	-0.850
726.60	-0.836
726.91	-0.826
727.23	-0.900
727.55	-0.817
727.87	-0.824
728.19	-0.871
728.51	-0.944
728.83	-0.947
729.14	-0.906
729.46	-0.941
729.78	-0.858
730.10	-0.932
730.42	-0.935
730.74	-1.027
731.05	-0.928
731.37	-0.880
731.69	-0.939
732.01	-1.104
732.33	-1.037
732.64	-0.985
732.96	-1.127
733.28	-1.022
733.60	-1.018
733.92	-1.020
734.23	-1.035
734.55	-0.991
734.87	-1.064
735.19	-1.004
735.50	-1.065
735.82	-1.028
736.14	-1.053
736.45	-0.976
736.77	-1.085
737.09	-1.062
737.41	-1.084
737.72	-1.023
738.04	-1.047
738.36	-1.046
738.67	-1.142
738.99	-1.075
739.31	-1.054
739.63	-1.047
739.94	-1.015
740.26	-1.024
740.58	-1.034
740.89	-0.944
741.21	-1.029
741.52	-1.009
741.84	-1.012
742.16	-1.025
742.47	-1.004
742.79	-1.038
743.11	-0.917
743.42	-1.031
743.74	-0.891
744.05	-1.007
744.37	-0.984
744.69	-0.951
745.00	-0.920
745.32	-0.842
745.63	-0.879
745.95	-0.971
746.27	-0.937
746.58	-0.951
746.90	-0.933
747.21	-0.969
747.53	-0.829
747.84	-0.861
748.16	-0.934
748.47	-0.888
748.79	-0.877
749.10	-0.872
749.42	-0.933
749.74	-0.897
750.05	-0.901
750.37	-0.923
750.68	-0.871
751.00	-0.837
751.31	-0.828
751.62	-0.822
751.94	-0.849
752.25	-0.850
752.57	-0.798
752.88	-0.824
753.20	-0.887
753.51	-0.834
753.83	-0.788
754.14	-0.772
754.46	-0.838
754.77	-0.797
755.08	-0.786
755.40	-0.758
755.71	-0.850
756.03	-0.724
756.34	-0.770
756.66	-0.846
756.97	-0.745
757.28	-0.689
757.60	-0.752
757.91	-0.776
758.22	-0.755
758.54	-0.743
758.85	-0.741
759.17	-0.836
759.48	-0.736
759.79	-0.754
760.11	-0.770
760.42	-0.763
760.73	-0.675
761.05	-0.730
761.36	-0.759
761.67	-0.685
761.99	-0.734
762.30	-0.680
762.61	-0.688
762.92	-0.776
763.24	-0.694
763.55	-0.702
763.86	-0.786
764.18	-0.714
764.49	-0.680
764.80	-0.687
765.11	-0.750
765.43	-0.696
765.74	-0.717
766.05	-0.696
766.36	-0.707
766.68	-0.713
766.99	-0.662
767.30	-0.652
767.61	-0.749
767.93	-0.740
768.24	-0.668
768.55	-0.653
768.86	-0.724
769.17	-0.679
769.49	-0.735
769.80	-0.702
770.11	-0.665
770.42	-0.675
770.73	-0.687
771.04	-0.711
771.36	-0.745
771.67	-0.651
771.98	-0.709
772.29	-0.697
772.60	-0.685
772.91	-0.713
773.22	-0.719
773.54	-0.716
773.85	-0.736
774.16	-0.723
774.47	-0.705
774.78	-0.749
775.09	-0.660
775.40	-0.742
775.71	-0.834
776.02	-0.698
776.33	-0.688
776.64	-0.785
776.96	-0.744
777.27	-0.754
777.58	-0.770
777.89	-0.790
778.20	-0.766
778.51	-0.788
778.82	-0.741
779.13	-0.800
779.44	-0.779
779.75	-0.856
780.06	-0.806
780.37	-0.837
780.68	-0.797
780.99	-0.783
781.30	-0.862
781.61	-0.832
781.92	-0.798
782.23	-0.804
782.54	-0.847
782.85	-0.927
783.16	-0.843
783.47	-0.827
783.78	-0.853
784.08	-0.861
784.39	-0.946
784.70	-0.880
785.01	-0.919
785.32	-0.876
785.63	-0.943
785.94	-0.933
786.25	-0.956
786.56	-0.938
786.87	-0.936
787.18	-0.978
787.48	-0.976
787.79	-0.983
788.10	-0.981
788.41	-1.009
788.72	-0.945
789.03	-0.977
789.34	-1.029
789.64	-0.987
789.95	-1.030
790.26	-1.031
790.57	-1.058
790.88	-1.035
791.19	-1.164
791.49	-1.159
791.80	-1.126
792.11	-1.221
792.42	-1.209
792.73	-1.112
793.03	-1.155
793.34	-1.110
793.65	-1.242
793.96	-1.315
794.27	-1.170
794.57	-1.287
794.88	-1.179
795.19	-1.273
795.50	-1.230
795.80	-1.296
796.11	-1.378
796.42	-1.239
796.72	-1.369
797.03	-1.388
797.34	-1.408
797.65	-1.396
797.95	-1.298
798.26	-1.369
798.57	-1.324
798.87	-1.351
799.18	-1.490
799.49	-1.552
799.79	-1.434
800.10	-1.476
800.41	-1.455
800.71	-1.516
801.02	-1.534
801.33	-1.602
801.63	-1.523
801.94	-1.495
802.24	-1.508
802.55	-1.634
802.86	-1.521
803.16	-1.840
803.47	-1.640
803.77	-1.608
804.08	-1.749
804.39	-1.802
804.69	-1.707
805.00	-1.662
805.30	-1.683
805.61	-1.905
805.91	-1.890
806.22	-1.745
806.53	-1.639
806.83	-1.945
807.14	-1.972
807.44	-1.972
807.75	-1.925
808.05	-1.905
808.36	-1.970
808.66	-1.948
808.97	-1.901
809.27	-1.901
809.58	-1.970
809.88	-1.943
810.19	-2.119
810.49	-2.028
810.80	-2.156
811.10	-2.108
811.41	-1.889
811.71	-2.240
812.01	-2.037
812.32	-2.226
812.62	-2.268
812.93	-2.226
813.23	-2.203
813.54	-2.293
813.84	-2.175
814.14	-2.396
814.45	-2.470
814.75	-2.326
815.06	-2.376
815.36	-2.426
815.66	-2.673
815.97	-2.747
816.27	-2.660
816.58	-2.490
816.88	-2.683
817.18	-2.718
817.49	-2.843
817.79	-2.675
818.09	-2.672
818.40	-2.881
818.70	-2.786
819.00	-3.024
819.31	-2.919
819.61	-2.976
819.91	-2.793
820.21	-3.039
820.52	-3.166
820.82	-3.293
821.12	-2.715
821.43	-3.138
821.73	-3.484
822.03	-3.144
822.33	-3.636
822.64	-3.234
822.94	-3.255
823.24	-3.546
823.54	-3.458
823.85	-3.698
824.15	-3.762
824.45	-3.729
824.75	-3.485
825.05	-3.986
825.36	-3.948
825.66	-3.883
825.96	-3.697
826.26	-4.241
826.56	-4.028
826.87	-4.199
827.17	-4.019
827.47	-4.323
827.77	-4.185
828.07	-4.609
828.37	-4.381
828.67	-4.462
828.98	-4.383
829.28	-4.847
829.58	-4.864
829.88	-4.683
830.18	-4.962
830.48	-5.256
830.78	-5.106
831.08	-5.364
831.38	-4.664
831.69	-5.348
831.99	-5.871
832.29	-5.497
832.59	-6.129
832.89	-5.267
833.19	-5.846
833.49	-5.985
833.79	-6.118
834.09	-5.698
834.39	-6.567
834.69	-6.563
834.99	-6.143
835.29	-6.897
835.59	-7.362
835.89	-7.104
836.19	-6.595
836.49	-6.976
836.79	-7.909
837.09	-8.566
837.39	-8.302
837.69	-7.530
837.99	-8.573
838.29	-9.100
838.59	-8.944
838.89	-9.513
839.19	-8.975
839.49	-9.564
839.79	-9.053
840.09	-10.136
840.39	-10.073
840.68	-10.613
840.98	-10.445
841.28	-10.531
841.58	-11.620
841.88	-10.897
842.18	-10.910
842.48	-11.810
842.78	-11.683
843.08	-11.317
843.37	-12.793
843.67	-12.765
843.97	-12.790
844.27	-14.634
844.57	-14.374
844.87	-14.892
845.16	-14.686
845.46	-15.079
845.76	-16.365
846.06	-16.435
846.36	-17.222
846.66	-16.743
846.95	-19.257
847.25	-16.943
847.55	-18.008
847.85	-19.258
848.14	-17.719
848.44	-18.243
848.74	-20.407
849.04	-19.967
849.33	-19.182
849.63	-21.106
849.93	-22.126
850.23	-22.751
850.52	-22.958
850.82	-23.951
851.12	-24.972
851.42	-26.143
851.71	-24.586
852.01	-27.836
852.31	-27.950
852.60	-27.982
852.90	-29.549
853.20	-28.954
853.49	-28.929
853.79	-31.606
854.09	-30.335
854.38	-31.245
854.68	-32.347
854.98	-33.540
855.27	-30.298
855.57	-36.667
855.86	-33.762
856.16	-37.026
856.46	-35.906
856.75	-37.856
857.05	-37.047
857.34	-37.403
857.64	-38.537
857.94	-38.410
858.23	-39.756
858.53	-35.383
858.82	-40.045
859.12	-39.078
859.41	-34.903
859.71	-41.233
860.01	-41.097
860.30	-43.012
860.60	-42.088
860.89	-42.304
861.19	-38.472
861.48	-44.226
861.78	-36.221
862.07	-41.306
862.37	-43.089
862.66	-44.964
862.96	-42.386
863.25	-45.206
863.55	-36.415
863.84	-43.266
864.13	-42.180
864.43	-44.194
864.72	-39.520
865.02	-44.160
865.31	-46.407
865.61	-40.244
865.90	-43.881
866.19	-41.959
866.49	-40.556
866.78	-41.937
867.08	-41.976
867.37	-38.832
867.66	-45.070
867.96	-43.004
868.25	-38.592
868.55	-42.857
868.84	-47.279
869.13	-42.801
869.43	-40.944
869.72	-43.572
870.01	-45.500
870.31	-42.489
870.60	-43.568
870.89	-41.912
871.19	-39.325
871.48	-40.019
871.77	-40.804
872.07	-47.415
872.36	-40.614
872.65	-42.029
872.94	-48.225
873.24	-41.981
873.53	-46.710
873.82	-43.507
874.11	-46.038
874.41	-46.217
874.70	-53.380
>>>>>End Processed Spectral Data<<<<<
