SpectraSuite Data File
++++++++++++++++++++++++++++++++++++
Date: Mon Apr 27 20:50:26 BST 2015
User: mpfc3
Dark Spectrum Present: Yes
Reference Spectrum Present: Yes
Number of Sampled Component Spectra: 1
Spectrometers: USB2E3636
Integration Time (usec): 30000 (USB2E3636)
Spectra Averaged: 100 (USB2E3636)
Boxcar Smoothing: 0 (USB2E3636)
Correct for Electrical Dark: No (USB2E3636)
Strobe/Lamp Enabled: No (USB2E3636)
Correct for Detector Non-linearity: No (USB2E3636)
Correct for Stray Light: No (USB2E3636)
Number of Pixels in Processed Spectrum: 2048
>>>>>Begin Processed Spectral Data<<<<<
180.28	0.000
180.65	374.419
181.02	316.149
181.39	297.753
181.77	2217.391
182.14	616.250
182.51	440.909
182.88	303.571
183.25	362.581
183.63	684.286
184.00	423.585
184.37	3909.091
184.74	486.735
185.11	289.143
185.49	345.333
185.86	265.537
186.23	347.619
186.60	517.857
186.97	793.846
187.35	386.325
187.72	503.030
188.09	437.398
188.46	387.597
188.83	617.105
189.20	-131.781
189.58	-20.472
189.95	-16.729
190.32	-18.025
190.69	-21.746
191.06	-20.968
191.43	-18.182
191.81	-15.941
192.18	-21.682
192.55	-17.707
192.92	-18.448
193.29	-16.445
193.66	-18.661
194.03	-20.856
194.41	-21.515
194.78	-16.176
195.15	-17.880
195.52	-15.872
195.89	-16.095
196.26	-20.278
196.63	-23.520
197.01	-20.779
197.38	-15.940
197.75	-20.499
198.12	-19.903
198.49	-21.460
198.86	-19.700
199.23	-19.311
199.60	-16.419
199.98	-20.150
200.35	-18.048
200.72	-20.909
201.09	-16.996
201.46	-18.029
201.83	-17.936
202.20	-17.193
202.57	-19.032
202.94	-21.271
203.31	-20.767
203.69	-16.398
204.06	-18.729
204.43	-20.552
204.80	-19.522
205.17	-16.585
205.54	-18.011
205.91	-18.820
206.28	-23.546
206.65	-15.608
207.02	-16.780
207.39	-17.783
207.76	-17.501
208.14	-18.874
208.51	-20.381
208.88	-19.977
209.25	-17.953
209.62	-21.399
209.99	-24.588
210.36	-22.620
210.73	-18.495
211.10	-22.327
211.47	-18.045
211.84	-21.550
212.21	-20.739
212.58	-20.960
212.95	-20.909
213.32	-21.403
213.69	-24.510
214.06	-16.083
214.43	-21.203
214.80	-21.062
215.17	-18.134
215.55	-20.799
215.92	-19.683
216.29	-21.822
216.66	-19.050
217.03	-16.831
217.40	-23.049
217.77	-20.061
218.14	-21.373
218.51	-21.663
218.88	-21.327
219.25	-25.248
219.62	-21.506
219.99	-21.112
220.36	-25.094
220.73	-20.860
221.10	-26.424
221.47	-21.594
221.84	-22.611
222.21	-20.545
222.58	-26.746
222.95	-23.466
223.32	-20.328
223.69	-22.591
224.06	-26.606
224.43	-23.939
224.80	-21.420
225.17	-20.301
225.54	-20.675
225.91	-21.627
226.27	-22.039
226.64	-24.467
227.01	-22.271
227.38	-20.820
227.75	-20.327
228.12	-19.336
228.49	-26.936
228.86	-22.663
229.23	-27.279
229.60	-23.428
229.97	-22.042
230.34	-22.259
230.71	-30.546
231.08	-26.794
231.45	-22.555
231.82	-26.719
232.19	-22.734
232.56	-23.204
232.93	-24.228
233.30	-24.506
233.66	-24.596
234.03	-22.328
234.40	-29.466
234.77	-24.143
235.14	-22.522
235.51	-25.220
235.88	-19.604
236.25	-26.568
236.62	-26.257
236.99	-25.085
237.36	-30.852
237.73	-29.408
238.09	-21.099
238.46	-23.492
238.83	-32.807
239.20	-26.469
239.57	-23.550
239.94	-25.913
240.31	-24.755
240.68	-27.101
241.05	-30.089
241.41	-22.207
241.78	-33.257
242.15	-22.531
242.52	-27.986
242.89	-21.763
243.26	-25.155
243.63	-26.090
244.00	-28.675
244.36	-21.620
244.73	-28.816
245.10	-30.909
245.47	-28.489
245.84	-26.926
246.21	-27.132
246.58	-24.293
246.94	-26.455
247.31	-28.392
247.68	-24.029
248.05	-25.129
248.42	-27.671
248.79	-29.534
249.15	-24.123
249.52	-26.032
249.89	-22.999
250.26	-26.096
250.63	-26.615
251.00	-25.959
251.36	-24.282
251.73	-27.807
252.10	-20.172
252.47	-31.979
252.84	-36.047
253.20	-33.594
253.57	-26.243
253.94	-33.521
254.31	-33.412
254.68	-27.782
255.05	-34.087
255.41	-21.605
255.78	-33.516
256.15	-25.151
256.52	-34.180
256.88	-28.929
257.25	-31.811
257.62	-25.629
257.99	-31.067
258.36	-25.132
258.72	-32.906
259.09	-28.209
259.46	-30.120
259.83	-31.392
260.19	-27.477
260.56	-31.166
260.93	-33.579
261.30	-24.795
261.67	-31.486
262.03	-29.528
262.40	-28.571
262.77	-24.380
263.14	-26.284
263.50	-38.750
263.87	-29.938
264.24	-33.739
264.61	-30.394
264.97	-30.251
265.34	-34.723
265.71	-32.512
266.07	-29.915
266.44	-28.785
266.81	-34.488
267.18	-34.319
267.54	-33.603
267.91	-33.360
268.28	-29.772
268.64	-32.151
269.01	-28.526
269.38	-29.944
269.75	-34.502
270.11	-25.161
270.48	-24.107
270.85	-34.534
271.21	-35.309
271.58	-30.769
271.95	-26.060
272.32	-33.197
272.68	-29.786
273.05	-31.281
273.42	-36.627
273.78	-35.460
274.15	-31.982
274.52	-36.017
274.88	-39.440
275.25	-24.324
275.62	-26.974
275.98	-35.275
276.35	-36.946
276.72	-36.653
277.08	-31.897
277.45	-31.462
277.82	-29.633
278.18	-26.097
278.55	-33.688
278.92	-31.043
279.28	-35.041
279.65	-31.782
280.01	-32.937
280.38	-35.506
280.75	-39.127
281.11	-32.415
281.48	-35.897
281.85	-29.453
282.21	-35.025
282.58	-36.958
282.95	-37.753
283.31	-34.215
283.68	-29.683
284.04	-24.453
284.41	-37.903
284.78	-33.659
285.14	-23.442
285.51	-30.315
285.87	-31.313
286.24	-24.345
286.61	-30.177
286.97	-40.763
287.34	-34.976
287.70	-24.523
288.07	-23.419
288.44	-31.492
288.80	-35.589
289.17	-36.010
289.53	-29.474
289.90	-32.240
290.26	-29.639
290.63	-36.379
291.00	-42.432
291.36	-31.374
291.73	-30.985
292.09	-30.159
292.46	-29.921
292.82	-32.027
293.19	-33.637
293.56	-32.063
293.92	-32.705
294.29	-27.812
294.65	-26.783
295.02	-27.080
295.38	-27.824
295.75	-31.782
296.11	-33.579
296.48	-28.848
296.84	-31.630
297.21	-28.426
297.57	-33.523
297.94	-27.994
298.30	-28.282
298.67	-29.992
299.04	-29.615
299.40	-27.237
299.77	-26.262
300.13	-31.289
300.50	-30.744
300.86	-25.057
301.23	-27.266
301.59	-23.534
301.96	-25.647
302.32	-28.243
302.69	-23.602
303.05	-29.544
303.42	-31.660
303.78	-31.360
304.14	-27.182
304.51	-25.415
304.87	-23.851
305.24	-22.371
305.60	-30.290
305.97	-20.135
306.33	-27.198
306.70	-30.152
307.06	-27.188
307.43	-30.200
307.79	-30.728
308.16	-25.975
308.52	-28.940
308.88	-28.876
309.25	-29.888
309.61	-29.822
309.98	-31.726
310.34	-25.105
310.71	-24.421
311.07	-24.530
311.44	-24.964
311.80	-27.175
312.16	-28.582
312.53	-32.133
312.89	-21.419
313.26	-22.721
313.62	-29.136
313.98	-20.107
314.35	-23.769
314.71	-25.035
315.08	-19.079
315.44	-22.176
315.80	-25.272
316.17	-21.933
316.53	-23.518
316.90	-23.537
317.26	-19.947
317.62	-19.856
317.99	-20.377
318.35	-28.982
318.72	-22.646
319.08	-20.592
319.44	-18.991
319.81	-23.704
320.17	-19.988
320.53	-19.481
320.90	-18.323
321.26	-19.321
321.62	-21.524
321.99	-26.247
322.35	-21.929
322.72	-21.723
323.08	-20.336
323.44	-22.918
323.81	-18.219
324.17	-21.316
324.53	-23.314
324.90	-17.585
325.26	-21.960
325.62	-19.487
325.99	-14.492
326.35	-17.580
326.71	-17.802
327.08	-18.577
327.44	-16.279
327.80	-16.779
328.16	-16.247
328.53	-20.504
328.89	-17.999
329.25	-21.137
329.62	-15.142
329.98	-12.115
330.34	-16.249
330.71	-17.847
331.07	-17.411
331.43	-15.884
331.79	-18.684
332.16	-16.268
332.52	-18.471
332.88	-11.630
333.24	-16.404
333.61	-13.674
333.97	-13.158
334.33	-11.899
334.70	-14.983
335.06	-14.564
335.42	-15.914
335.78	-16.744
336.15	-12.180
336.51	-15.869
336.87	-13.073
337.23	-13.064
337.60	-13.260
337.96	-12.158
338.32	-12.505
338.68	-12.551
339.04	-12.234
339.41	-11.726
339.77	-10.745
340.13	-10.300
340.49	-7.869
340.86	-11.165
341.22	-11.511
341.58	-8.078
341.94	-11.443
342.30	-8.738
342.67	-11.211
343.03	-7.678
343.39	-7.904
343.75	-9.994
344.11	-7.604
344.48	-7.713
344.84	-9.589
345.20	-8.026
345.56	-7.688
345.92	-9.010
346.28	-8.524
346.65	-9.272
347.01	-9.186
347.37	-10.030
347.73	-8.450
348.09	-9.197
348.45	-8.465
348.82	-7.750
349.18	-8.668
349.54	-7.330
349.90	-6.136
350.26	-6.638
350.62	-8.485
350.98	-6.800
351.35	-5.409
351.71	-6.523
352.07	-7.185
352.43	-6.950
352.79	-6.202
353.15	-7.810
353.51	-5.507
353.87	-6.006
354.24	-5.996
354.60	-6.874
354.96	-6.125
355.32	-6.247
355.68	-5.209
356.04	-6.732
356.40	-5.811
356.76	-6.323
357.12	-5.615
357.48	-5.155
357.85	-4.860
358.21	-4.963
358.57	-5.189
358.93	-4.953
359.29	-3.955
359.65	-4.211
360.01	-3.962
360.37	-4.393
360.73	-4.669
361.09	-3.594
361.45	-5.335
361.81	-4.819
362.17	-4.044
362.53	-3.404
362.89	-5.120
363.25	-3.786
363.62	-4.038
363.98	-3.854
364.34	-4.484
364.70	-3.362
365.06	-4.023
365.42	-3.717
365.78	-3.106
366.14	-3.078
366.50	-4.267
366.86	-3.466
367.22	-3.197
367.58	-2.696
367.94	-3.216
368.30	-2.889
368.66	-3.875
369.02	-2.831
369.38	-2.267
369.74	-2.858
370.10	-3.259
370.46	-2.798
370.82	-2.281
371.18	-2.750
371.54	-2.820
371.90	-2.672
372.26	-2.324
372.62	-2.421
372.98	-1.876
373.33	-1.414
373.69	-1.769
374.05	-1.566
374.41	-1.443
374.77	-1.898
375.13	-2.562
375.49	-2.099
375.85	-2.334
376.21	-1.561
376.57	-1.780
376.93	-0.998
377.29	-1.392
377.65	-1.932
378.01	-1.537
378.37	-1.495
378.73	-1.777
379.08	-1.569
379.44	-1.330
379.80	-0.895
380.16	-1.018
380.52	-1.166
380.88	-0.694
381.24	-1.244
381.60	-1.192
381.96	-0.757
382.32	-1.265
382.67	-0.353
383.03	-1.102
383.39	-0.278
383.75	-0.640
384.11	-0.565
384.47	-0.498
384.83	-0.791
385.19	-0.290
385.54	-0.150
385.90	-0.390
386.26	0.140
386.62	-0.263
386.98	0.251
387.34	0.495
387.70	0.077
388.05	0.473
388.41	0.573
388.77	0.707
389.13	0.925
389.49	1.408
389.85	0.952
390.20	0.779
390.56	1.279
390.92	1.195
391.28	1.438
391.64	1.337
391.99	1.056
392.35	1.915
392.71	1.602
393.07	1.914
393.43	2.037
393.78	2.073
394.14	1.725
394.50	1.924
394.86	2.751
395.22	2.367
395.57	2.150
395.93	2.532
396.29	2.813
396.65	2.885
397.00	2.787
397.36	2.912
397.72	3.089
398.08	3.097
398.43	3.315
398.79	3.639
399.15	3.294
399.51	3.642
399.86	3.178
400.22	3.844
400.58	3.845
400.94	4.097
401.29	4.107
401.65	4.402
402.01	4.611
402.37	4.332
402.72	4.681
403.08	4.638
403.44	4.385
403.79	4.651
404.15	4.746
404.51	5.187
404.86	5.118
405.22	5.407
405.58	5.495
405.94	5.760
406.29	5.560
406.65	5.914
407.01	5.975
407.36	6.028
407.72	5.809
408.08	6.357
408.43	6.378
408.79	6.564
409.15	6.354
409.50	6.454
409.86	6.911
410.22	7.012
410.57	6.931
410.93	6.818
411.29	7.203
411.64	7.148
412.00	7.038
412.35	7.471
412.71	7.399
413.07	7.517
413.42	7.636
413.78	7.829
414.14	7.779
414.49	7.824
414.85	8.085
415.20	8.121
415.56	8.209
415.92	8.207
416.27	8.525
416.63	8.796
416.98	8.659
417.34	8.792
417.70	9.027
418.05	9.203
418.41	8.981
418.76	9.275
419.12	9.339
419.47	9.422
419.83	9.391
420.19	9.659
420.54	9.830
420.90	9.721
421.25	9.917
421.61	10.007
421.96	10.074
422.32	10.256
422.67	10.379
423.03	10.467
423.39	10.295
423.74	10.760
424.10	10.691
424.45	10.768
424.81	11.061
425.16	11.219
425.52	11.154
425.87	11.171
426.23	11.387
426.58	11.504
426.94	11.590
427.29	11.656
427.65	11.851
428.00	11.947
428.36	11.990
428.71	12.104
429.07	12.100
429.42	12.092
429.78	12.292
430.13	12.403
430.49	12.482
430.84	12.590
431.19	12.600
431.55	12.773
431.90	12.870
432.26	13.014
432.61	13.094
432.97	13.237
433.32	13.531
433.68	13.374
434.03	13.288
434.39	13.554
434.74	13.473
435.09	13.676
435.45	13.912
435.80	13.793
436.16	14.159
436.51	14.217
436.86	14.125
437.22	14.313
437.57	14.420
437.93	14.299
438.28	14.330
438.63	14.584
438.99	14.619
439.34	14.731
439.70	14.759
440.05	14.797
440.40	14.952
440.76	14.996
441.11	15.094
441.47	15.274
441.82	15.295
442.17	15.308
442.53	15.346
442.88	15.643
443.23	15.683
443.59	15.787
443.94	15.769
444.29	15.919
444.65	15.988
445.00	16.032
445.35	16.020
445.71	16.147
446.06	16.320
446.41	16.541
446.77	16.394
447.12	16.520
447.47	16.665
447.83	16.604
448.18	16.856
448.53	16.896
448.89	16.988
449.24	16.916
449.59	16.997
449.94	17.085
450.30	17.080
450.65	17.247
451.00	17.341
451.36	17.516
451.71	17.535
452.06	17.732
452.41	17.811
452.77	17.843
453.12	17.958
453.47	18.057
453.82	18.003
454.18	18.177
454.53	18.214
454.88	18.277
455.23	18.505
455.59	18.501
455.94	18.545
456.29	18.632
456.64	18.798
457.00	18.757
457.35	18.951
457.70	19.048
458.05	19.008
458.40	19.108
458.76	19.199
459.11	19.381
459.46	19.431
459.81	19.489
460.16	19.545
460.52	19.660
460.87	19.747
461.22	19.761
461.57	19.864
461.92	20.040
462.28	20.085
462.63	20.130
462.98	20.285
463.33	20.373
463.68	20.322
464.03	20.484
464.38	20.497
464.74	20.596
465.09	20.596
465.44	20.723
465.79	20.887
466.14	20.871
466.49	20.993
466.84	21.075
467.20	21.022
467.55	21.254
467.90	21.176
468.25	21.077
468.60	21.372
468.95	21.541
469.30	21.509
469.65	21.579
470.00	21.652
470.36	21.752
470.71	21.799
471.06	21.826
471.41	21.882
471.76	21.992
472.11	21.877
472.46	21.925
472.81	22.030
473.16	22.067
473.51	22.064
473.86	22.127
474.21	22.145
474.56	22.223
474.91	22.233
475.26	22.258
475.62	22.283
475.97	22.254
476.32	22.303
476.67	22.306
477.02	22.321
477.37	22.324
477.72	22.467
478.07	22.340
478.42	22.419
478.77	22.404
479.12	22.447
479.47	22.505
479.82	22.459
480.17	22.459
480.52	22.391
480.87	22.400
481.22	22.470
481.57	22.430
481.92	22.479
482.27	22.453
482.62	22.476
482.97	22.473
483.32	22.581
483.67	22.554
484.02	22.509
484.36	22.583
484.71	22.577
485.06	22.642
485.41	22.601
485.76	22.644
486.11	22.735
486.46	22.646
486.81	22.782
487.16	22.800
487.51	22.843
487.86	22.850
488.21	22.978
488.56	23.008
488.91	23.035
489.25	23.169
489.60	23.203
489.95	23.204
490.30	23.313
490.65	23.334
491.00	23.433
491.35	23.511
491.70	23.567
492.05	23.563
492.39	23.693
492.74	23.644
493.09	23.716
493.44	23.841
493.79	23.835
494.14	23.975
494.49	24.053
494.83	24.117
495.18	24.177
495.53	24.216
495.88	24.306
496.23	24.413
496.58	24.455
496.92	24.460
497.27	24.667
497.62	24.667
497.97	24.763
498.32	24.796
498.67	24.845
499.01	24.959
499.36	24.940
499.71	25.039
500.06	25.081
500.41	25.158
500.75	25.184
501.10	25.233
501.45	25.338
501.80	25.409
502.14	25.411
502.49	25.441
502.84	25.467
503.19	25.601
503.53	25.640
503.88	25.683
504.23	25.652
504.58	25.747
504.92	25.778
505.27	25.852
505.62	25.826
505.97	25.824
506.31	25.839
506.66	25.899
507.01	25.895
507.36	25.908
507.70	25.971
508.05	26.026
508.40	25.918
508.74	25.968
509.09	25.851
509.44	25.933
509.79	25.867
510.13	25.934
510.48	25.802
510.83	25.803
511.17	25.818
511.52	25.777
511.87	25.783
512.21	25.816
512.56	25.753
512.91	25.806
513.25	25.832
513.60	25.823
513.95	25.798
514.29	25.893
514.64	25.925
514.98	25.968
515.33	26.033
515.68	26.113
516.02	26.055
516.37	26.079
516.72	26.088
517.06	26.122
517.41	26.193
517.75	26.177
518.10	26.187
518.45	26.190
518.79	26.251
519.14	26.306
519.48	26.270
519.83	26.368
520.18	26.330
520.52	26.262
520.87	26.326
521.21	26.389
521.56	26.450
521.90	26.302
522.25	26.388
522.60	26.360
522.94	26.376
523.29	26.378
523.63	26.381
523.98	26.317
524.32	26.322
524.67	26.315
525.01	26.357
525.36	26.295
525.70	26.284
526.05	26.239
526.39	26.179
526.74	26.128
527.08	26.062
527.43	25.948
527.77	26.050
528.12	25.905
528.46	25.850
528.81	25.779
529.15	25.703
529.50	25.704
529.84	25.557
530.19	25.522
530.53	25.476
530.88	25.318
531.22	25.232
531.57	25.165
531.91	24.990
532.26	24.882
532.60	24.784
532.94	24.637
533.29	24.555
533.63	24.404
533.98	24.184
534.32	24.124
534.67	23.860
535.01	23.750
535.35	23.555
535.70	23.461
536.04	23.188
536.39	23.060
536.73	22.807
537.07	22.658
537.42	22.500
537.76	22.356
538.11	22.137
538.45	21.989
538.79	21.807
539.14	21.617
539.48	21.484
539.82	21.333
540.17	21.068
540.51	20.997
540.85	20.862
541.20	20.638
541.54	20.538
541.89	20.385
542.23	20.285
542.57	20.146
542.92	20.097
543.26	20.032
543.60	19.911
543.94	19.840
544.29	19.804
544.63	19.751
544.97	19.707
545.32	19.697
545.66	19.620
546.00	19.618
546.35	19.633
546.69	19.610
547.03	19.618
547.37	19.672
547.72	19.639
548.06	19.726
548.40	19.740
548.75	19.819
549.09	19.830
549.43	19.837
549.77	19.883
550.12	19.992
550.46	20.035
550.80	20.162
551.14	20.220
551.49	20.280
551.83	20.467
552.17	20.572
552.51	20.611
552.85	20.808
553.20	20.902
553.54	21.007
553.88	21.177
554.22	21.307
554.56	21.526
554.91	21.731
555.25	21.828
555.59	22.010
555.93	22.242
556.27	22.400
556.62	22.600
556.96	22.873
557.30	23.040
557.64	23.146
557.98	23.438
558.32	23.653
558.67	23.825
559.01	24.056
559.35	24.257
559.69	24.495
560.03	24.660
560.37	24.897
560.71	25.082
561.05	25.276
561.40	25.472
561.74	25.638
562.08	25.879
562.42	26.025
562.76	26.211
563.10	26.329
563.44	26.472
563.78	26.615
564.12	26.769
564.46	26.962
564.81	27.078
565.15	27.184
565.49	27.257
565.83	27.384
566.17	27.496
566.51	27.566
566.85	27.675
567.19	27.777
567.53	27.838
567.87	27.868
568.21	27.890
568.55	27.911
568.89	27.975
569.23	27.976
569.57	27.993
569.91	27.988
570.25	28.013
570.59	28.093
570.93	27.965
571.27	27.951
571.61	28.002
571.95	27.967
572.29	27.916
572.63	27.823
572.97	27.852
573.31	27.754
573.65	27.649
573.99	27.591
574.33	27.586
574.67	27.485
575.01	27.331
575.35	27.261
575.69	27.181
576.03	27.126
576.37	27.037
576.71	26.941
577.05	26.774
577.39	26.681
577.73	26.580
578.06	26.416
578.40	26.268
578.74	26.160
579.08	26.011
579.42	25.858
579.76	25.719
580.10	25.527
580.44	25.402
580.78	25.254
581.12	25.013
581.45	24.878
581.79	24.723
582.13	24.576
582.47	24.426
582.81	24.243
583.15	24.102
583.49	23.964
583.83	23.806
584.16	23.657
584.50	23.530
584.84	23.454
585.18	23.279
585.52	23.200
585.86	23.045
586.19	22.936
586.53	22.770
586.87	22.682
587.21	22.592
587.55	22.370
587.88	22.260
588.22	22.150
588.56	21.941
588.90	21.809
589.24	21.615
589.57	21.452
589.91	21.269
590.25	21.068
590.59	20.860
590.92	20.755
591.26	20.594
591.60	20.354
591.94	20.169
592.27	19.900
592.61	19.710
592.95	19.511
593.29	19.284
593.62	18.971
593.96	18.790
594.30	18.468
594.64	18.245
594.97	17.934
595.31	17.634
595.65	17.320
595.98	17.067
596.32	16.658
596.66	16.329
597.00	15.943
597.33	15.564
597.67	15.132
598.01	14.804
598.34	14.407
598.68	14.012
599.02	13.663
599.35	13.278
599.69	12.936
600.03	12.608
600.36	12.309
600.70	11.989
601.03	11.697
601.37	11.457
601.71	11.198
602.04	10.950
602.38	10.665
602.72	10.493
603.05	10.269
603.39	10.012
603.72	9.824
604.06	9.577
604.40	9.403
604.73	9.124
605.07	8.895
605.40	8.696
605.74	8.451
606.08	8.220
606.41	8.026
606.75	7.752
607.08	7.535
607.42	7.269
607.75	7.090
608.09	6.821
608.42	6.591
608.76	6.338
609.10	6.100
609.43	5.901
609.77	5.659
610.10	5.440
610.44	5.240
610.77	5.016
611.11	4.827
611.44	4.601
611.78	4.421
612.11	4.222
612.45	4.019
612.78	3.832
613.12	3.643
613.45	3.480
613.79	3.283
614.12	3.186
614.46	3.022
614.79	2.874
615.13	2.736
615.46	2.631
615.79	2.509
616.13	2.378
616.46	2.252
616.80	2.171
617.13	2.059
617.47	2.001
617.80	1.913
618.13	1.831
618.47	1.752
618.80	1.693
619.14	1.639
619.47	1.585
619.81	1.535
620.14	1.460
620.47	1.416
620.81	1.366
621.14	1.363
621.47	1.276
621.81	1.283
622.14	1.226
622.48	1.171
622.81	1.137
623.14	1.117
623.48	1.082
623.81	1.071
624.14	1.037
624.48	1.022
624.81	0.980
625.14	0.985
625.48	0.979
625.81	0.952
626.14	0.955
626.48	0.933
626.81	0.954
627.14	0.960
627.48	0.967
627.81	0.971
628.14	0.964
628.47	1.008
628.81	1.006
629.14	1.009
629.47	1.064
629.81	1.079
630.14	1.107
630.47	1.157
630.80	1.186
631.14	1.243
631.47	1.289
631.80	1.344
632.13	1.440
632.47	1.487
632.80	1.578
633.13	1.658
633.46	1.749
633.79	1.840
634.13	1.941
634.46	2.096
634.79	2.188
635.12	2.320
635.45	2.461
635.79	2.599
636.12	2.774
636.45	2.912
636.78	3.075
637.11	3.253
637.45	3.446
637.78	3.626
638.11	3.817
638.44	4.010
638.77	4.207
639.10	4.440
639.44	4.687
639.77	4.866
640.10	5.098
640.43	5.288
640.76	5.563
641.09	5.759
641.42	5.995
641.75	6.225
642.08	6.440
642.42	6.657
642.75	6.906
643.08	7.121
643.41	7.384
643.74	7.568
644.07	7.791
644.40	8.018
644.73	8.193
645.06	8.418
645.39	8.606
645.72	8.819
646.05	8.988
646.38	9.212
646.72	9.343
647.05	9.511
647.38	9.742
647.71	9.844
648.04	10.022
648.37	10.122
648.70	10.244
649.03	10.377
649.36	10.475
649.69	10.527
650.02	10.675
650.35	10.719
650.68	10.767
651.01	10.724
651.34	10.720
651.67	10.794
652.00	10.703
652.33	10.662
652.66	10.631
652.99	10.528
653.31	10.444
653.64	10.279
653.97	10.168
654.30	9.970
654.63	9.804
654.96	9.607
655.29	9.378
655.62	9.197
655.95	8.970
656.28	8.722
656.61	8.491
656.94	8.268
657.27	7.990
657.60	7.805
657.92	7.540
658.25	7.308
658.58	7.132
658.91	6.854
659.24	6.689
659.57	6.504
659.90	6.330
660.23	6.139
660.55	5.987
660.88	5.787
661.21	5.627
661.54	5.484
661.87	5.344
662.20	5.204
662.52	5.069
662.85	4.914
663.18	4.770
663.51	4.652
663.84	4.501
664.16	4.398
664.49	4.269
664.82	4.163
665.15	4.035
665.48	3.948
665.80	3.826
666.13	3.707
666.46	3.635
666.79	3.526
667.12	3.440
667.44	3.348
667.77	3.304
668.10	3.219
668.43	3.121
668.75	3.046
669.08	2.996
669.41	2.884
669.73	2.854
670.06	2.812
670.39	2.729
670.72	2.698
671.04	2.639
671.37	2.594
671.70	2.576
672.02	2.505
672.35	2.470
672.68	2.434
673.00	2.411
673.33	2.417
673.66	2.376
673.98	2.368
674.31	2.296
674.64	2.314
674.96	2.279
675.29	2.256
675.62	2.249
675.94	2.241
676.27	2.210
676.60	2.218
676.92	2.192
677.25	2.162
677.58	2.175
677.90	2.174
678.23	2.144
678.55	2.138
678.88	2.137
679.21	2.101
679.53	2.099
679.86	2.098
680.18	2.088
680.51	2.072
680.83	2.063
681.16	2.060
681.49	2.004
681.81	2.014
682.14	1.987
682.46	1.952
682.79	1.939
683.11	1.940
683.44	1.923
683.76	1.894
684.09	1.862
684.41	1.900
684.74	1.841
685.06	1.873
685.39	1.847
685.71	1.800
686.04	1.784
686.36	1.820
686.69	1.787
687.01	1.775
687.34	1.736
687.66	1.749
687.99	1.730
688.31	1.711
688.64	1.719
688.96	1.666
689.29	1.633
689.61	1.626
689.93	1.584
690.26	1.578
690.58	1.552
690.91	1.533
691.23	1.491
691.56	1.460
691.88	1.447
692.20	1.382
692.53	1.358
692.85	1.301
693.18	1.296
693.50	1.245
693.82	1.201
694.15	1.138
694.47	1.103
694.79	1.026
695.12	1.015
695.44	0.956
695.76	0.906
696.09	0.854
696.41	0.828
696.73	0.747
697.06	0.685
697.38	0.655
697.70	0.640
698.03	0.519
698.35	0.543
698.67	0.465
699.00	0.436
699.32	0.409
699.64	0.348
699.97	0.320
700.29	0.291
700.61	0.229
700.93	0.216
701.26	0.190
701.58	0.111
701.90	0.138
702.22	0.131
702.55	0.086
702.87	0.048
703.19	0.023
703.51	0.040
703.84	0.034
704.16	0.007
704.48	0.006
704.80	0.005
705.13	-0.034
705.45	-0.032
705.77	-0.066
706.09	-0.055
706.41	-0.080
706.74	-0.095
707.06	-0.110
707.38	-0.110
707.70	-0.083
708.02	-0.099
708.34	-0.150
708.67	-0.108
708.99	-0.091
709.31	-0.133
709.63	-0.141
709.95	-0.193
710.27	-0.164
710.59	-0.119
710.92	-0.158
711.24	-0.153
711.56	-0.195
711.88	-0.150
712.20	-0.116
712.52	-0.201
712.84	-0.234
713.16	-0.158
713.48	-0.210
713.80	-0.165
714.12	-0.162
714.45	-0.146
714.77	-0.177
715.09	-0.160
715.41	-0.201
715.73	-0.180
716.05	-0.229
716.37	-0.230
716.69	-0.178
717.01	-0.187
717.33	-0.228
717.65	-0.216
717.97	-0.223
718.29	-0.281
718.61	-0.219
718.93	-0.227
719.25	-0.237
719.57	-0.248
719.89	-0.243
720.21	-0.276
720.53	-0.273
720.85	-0.293
721.17	-0.282
721.49	-0.258
721.81	-0.236
722.13	-0.255
722.45	-0.310
722.77	-0.282
723.09	-0.290
723.41	-0.324
723.72	-0.331
724.04	-0.384
724.36	-0.320
724.68	-0.357
725.00	-0.375
725.32	-0.408
725.64	-0.318
725.96	-0.398
726.28	-0.401
726.60	-0.402
726.91	-0.355
727.23	-0.416
727.55	-0.394
727.87	-0.330
728.19	-0.450
728.51	-0.391
728.83	-0.387
729.14	-0.411
729.46	-0.436
729.78	-0.454
730.10	-0.386
730.42	-0.481
730.74	-0.460
731.05	-0.362
731.37	-0.446
731.69	-0.431
732.01	-0.443
732.33	-0.360
732.64	-0.400
732.96	-0.478
733.28	-0.472
733.60	-0.462
733.92	-0.429
734.23	-0.492
734.55	-0.543
734.87	-0.518
735.19	-0.511
735.50	-0.513
735.82	-0.572
736.14	-0.393
736.45	-0.560
736.77	-0.435
737.09	-0.559
737.41	-0.532
737.72	-0.503
738.04	-0.486
738.36	-0.479
738.67	-0.541
738.99	-0.533
739.31	-0.497
739.63	-0.553
739.94	-0.519
740.26	-0.465
740.58	-0.490
740.89	-0.439
741.21	-0.486
741.52	-0.449
741.84	-0.499
742.16	-0.473
742.47	-0.360
742.79	-0.409
743.11	-0.399
743.42	-0.468
743.74	-0.361
744.05	-0.427
744.37	-0.446
744.69	-0.330
745.00	-0.464
745.32	-0.350
745.63	-0.465
745.95	-0.395
746.27	-0.398
746.58	-0.392
746.90	-0.390
747.21	-0.460
747.53	-0.450
747.84	-0.475
748.16	-0.374
748.47	-0.510
748.79	-0.427
749.10	-0.468
749.42	-0.442
749.74	-0.431
750.05	-0.482
750.37	-0.382
750.68	-0.386
751.00	-0.419
751.31	-0.437
751.62	-0.446
751.94	-0.343
752.25	-0.378
752.57	-0.468
752.88	-0.389
753.20	-0.365
753.51	-0.473
753.83	-0.344
754.14	-0.360
754.46	-0.389
754.77	-0.375
755.08	-0.339
755.40	-0.382
755.71	-0.378
756.03	-0.376
756.34	-0.284
756.66	-0.302
756.97	-0.396
757.28	-0.443
757.60	-0.377
757.91	-0.364
758.22	-0.295
758.54	-0.355
758.85	-0.325
759.17	-0.314
759.48	-0.326
759.79	-0.369
760.11	-0.307
760.42	-0.405
760.73	-0.309
761.05	-0.336
761.36	-0.391
761.67	-0.289
761.99	-0.340
762.30	-0.372
762.61	-0.343
762.92	-0.306
763.24	-0.366
763.55	-0.360
763.86	-0.359
764.18	-0.301
764.49	-0.359
764.80	-0.322
765.11	-0.301
765.43	-0.321
765.74	-0.288
766.05	-0.294
766.36	-0.364
766.68	-0.299
766.99	-0.332
767.30	-0.314
767.61	-0.360
767.93	-0.331
768.24	-0.295
768.55	-0.371
768.86	-0.381
769.17	-0.302
769.49	-0.365
769.80	-0.318
770.11	-0.318
770.42	-0.376
770.73	-0.361
771.04	-0.298
771.36	-0.318
771.67	-0.320
771.98	-0.338
772.29	-0.319
772.60	-0.352
772.91	-0.347
773.22	-0.323
773.54	-0.293
773.85	-0.307
774.16	-0.323
774.47	-0.305
774.78	-0.379
775.09	-0.329
775.40	-0.365
775.71	-0.374
776.02	-0.315
776.33	-0.379
776.64	-0.318
776.96	-0.384
777.27	-0.343
777.58	-0.335
777.89	-0.361
778.20	-0.293
778.51	-0.349
778.82	-0.388
779.13	-0.339
779.44	-0.435
779.75	-0.334
780.06	-0.475
780.37	-0.376
780.68	-0.398
780.99	-0.395
781.30	-0.390
781.61	-0.383
781.92	-0.452
782.23	-0.415
782.54	-0.427
782.85	-0.421
783.16	-0.441
783.47	-0.425
783.78	-0.450
784.08	-0.406
784.39	-0.420
784.70	-0.421
785.01	-0.450
785.32	-0.391
785.63	-0.366
785.94	-0.457
786.25	-0.493
786.56	-0.396
786.87	-0.479
787.18	-0.458
787.48	-0.462
787.79	-0.483
788.10	-0.530
788.41	-0.441
788.72	-0.493
789.03	-0.540
789.34	-0.560
789.64	-0.552
789.95	-0.547
790.26	-0.489
790.57	-0.560
790.88	-0.591
791.19	-0.468
791.49	-0.582
791.80	-0.583
792.11	-0.513
792.42	-0.532
792.73	-0.471
793.03	-0.566
793.34	-0.544
793.65	-0.499
793.96	-0.683
794.27	-0.548
794.57	-0.669
794.88	-0.562
795.19	-0.626
795.50	-0.609
795.80	-0.670
796.11	-0.633
796.42	-0.706
796.72	-0.752
797.03	-0.671
797.34	-0.655
797.65	-0.672
797.95	-0.656
798.26	-0.654
798.57	-0.711
798.87	-0.715
799.18	-0.642
799.49	-0.718
799.79	-0.741
800.10	-0.676
800.41	-0.765
800.71	-0.792
801.02	-0.752
801.33	-0.844
801.63	-0.702
801.94	-0.871
802.24	-0.825
802.55	-0.742
802.86	-0.825
803.16	-0.974
803.47	-0.711
803.77	-0.768
804.08	-0.905
804.39	-0.951
804.69	-0.902
805.00	-0.787
805.30	-0.976
805.61	-0.834
805.91	-0.859
806.22	-1.053
806.53	-0.866
806.83	-0.977
807.14	-0.969
807.44	-0.877
807.75	-1.007
808.05	-0.905
808.36	-0.967
808.66	-0.999
808.97	-1.064
809.27	-1.040
809.58	-0.996
809.88	-1.012
810.19	-0.990
810.49	-1.051
810.80	-1.016
811.10	-1.121
811.41	-1.049
811.71	-1.214
812.01	-1.102
812.32	-1.195
812.62	-1.211
812.93	-1.049
813.23	-1.173
813.54	-1.181
813.84	-1.180
814.14	-1.091
814.45	-1.267
814.75	-1.207
815.06	-1.301
815.36	-1.415
815.66	-1.321
815.97	-1.486
816.27	-1.334
816.58	-1.078
816.88	-1.513
817.18	-1.366
817.49	-1.409
817.79	-1.347
818.09	-1.328
818.40	-1.377
818.70	-1.304
819.00	-1.471
819.31	-1.562
819.61	-1.685
819.91	-1.496
820.21	-1.399
820.52	-1.533
820.82	-1.318
821.12	-1.527
821.43	-1.266
821.73	-1.856
822.03	-1.567
822.33	-1.514
822.64	-1.738
822.94	-1.536
823.24	-1.702
823.54	-1.680
823.85	-1.485
824.15	-1.669
824.45	-1.635
824.75	-1.846
825.05	-1.859
825.36	-1.815
825.66	-1.911
825.96	-2.023
826.26	-2.325
826.56	-1.908
826.87	-2.145
827.17	-1.763
827.47	-2.112
827.77	-2.334
828.07	-2.125
828.37	-2.448
828.67	-2.186
828.98	-2.377
829.28	-2.518
829.58	-2.568
829.88	-2.576
830.18	-2.176
830.48	-2.423
830.78	-2.950
831.08	-3.003
831.38	-2.652
831.69	-2.683
831.99	-2.897
832.29	-2.862
832.59	-2.955
832.89	-3.147
833.19	-2.919
833.49	-3.038
833.79	-3.416
834.09	-2.870
834.39	-2.998
834.69	-3.357
834.99	-3.593
835.29	-3.363
835.59	-3.389
835.89	-3.744
836.19	-4.067
836.49	-3.572
836.79	-4.039
837.09	-4.458
837.39	-3.790
837.69	-4.660
837.99	-4.368
838.29	-4.291
838.59	-4.604
838.89	-4.660
839.19	-4.873
839.49	-5.185
839.79	-5.982
840.09	-4.575
840.39	-4.790
840.68	-6.269
840.98	-4.200
841.28	-5.346
841.58	-5.322
841.88	-5.541
842.18	-6.151
842.48	-5.854
842.78	-5.466
843.08	-6.374
843.37	-6.586
843.67	-6.696
843.97	-6.543
844.27	-6.974
844.57	-6.449
844.87	-7.014
845.16	-7.456
845.46	-7.071
845.76	-7.842
846.06	-7.711
846.36	-7.624
846.66	-6.984
846.95	-8.319
847.25	-8.950
847.55	-10.195
847.85	-11.134
848.14	-8.452
848.44	-8.732
848.74	-8.470
849.04	-8.784
849.33	-9.365
849.63	-9.998
849.93	-10.941
850.23	-10.462
850.52	-12.475
850.82	-12.744
851.12	-13.347
851.42	-12.130
851.71	-11.735
852.01	-12.388
852.31	-13.287
852.60	-16.072
852.90	-11.980
853.20	-13.627
853.49	-12.984
853.79	-15.366
854.09	-14.830
854.38	-14.947
854.68	-15.840
854.98	-15.130
855.27	-15.329
855.57	-18.343
855.86	-15.626
856.16	-15.220
856.46	-16.868
856.75	-17.510
857.05	-15.805
857.34	-17.078
857.64	-16.980
857.94	-17.061
858.23	-19.770
858.53	-15.871
858.82	-16.679
859.12	-17.852
859.41	-18.941
859.71	-17.789
860.01	-17.189
860.30	-17.472
860.60	-17.997
860.89	-15.194
861.19	-18.307
861.48	-18.750
861.78	-20.153
862.07	-18.389
862.37	-21.725
862.66	-18.115
862.96	-18.368
863.25	-16.322
863.55	-16.279
863.84	-20.913
864.13	-14.524
864.43	-20.315
864.72	-15.664
865.02	-17.402
865.31	-19.264
865.61	-20.780
865.90	-15.552
866.19	-19.557
866.49	-17.552
866.78	-17.390
867.08	-20.900
867.37	-19.440
867.66	-16.719
867.96	-14.342
868.25	-17.597
868.55	-15.560
868.84	-19.644
869.13	-20.529
869.43	-21.318
869.72	-17.316
870.01	-17.899
870.31	-21.078
870.60	-17.357
870.89	-21.070
871.19	-21.512
871.48	-17.388
871.77	-20.407
872.07	-24.324
872.36	-16.845
872.65	-18.189
872.94	-21.782
873.24	-19.205
873.53	-21.990
873.82	-18.372
874.11	-18.118
874.41	-17.537
874.70	-20.996
>>>>>End Processed Spectral Data<<<<<
