SpectraSuite Data File
++++++++++++++++++++++++++++++++++++
Date: Sun May 03 17:20:50 BST 2015
User: mpfc3
Dark Spectrum Present: Yes
Reference Spectrum Present: Yes
Number of Sampled Component Spectra: 1
Spectrometers: USB2E3636
Integration Time (usec): 30000 (USB2E3636)
Spectra Averaged: 100 (USB2E3636)
Boxcar Smoothing: 0 (USB2E3636)
Correct for Electrical Dark: No (USB2E3636)
Strobe/Lamp Enabled: No (USB2E3636)
Correct for Detector Non-linearity: No (USB2E3636)
Correct for Stray Light: No (USB2E3636)
Number of Pixels in Processed Spectrum: 2048
>>>>>Begin Processed Spectral Data<<<<<
180.28	0.000
180.65	369.710
181.02	328.175
181.39	332.946
181.77	307.343
182.14	302.778
182.51	352.917
182.88	398.618
183.25	303.136
183.63	340.234
184.00	339.844
184.37	388.136
184.74	280.323
185.11	423.383
185.49	315.504
185.86	463.793
186.23	316.031
186.60	325.540
186.97	316.350
187.35	290.196
187.72	325.368
188.09	384.038
188.46	355.696
188.83	292.734
189.20	-322.761
189.58	-36.412
189.95	-36.953
190.32	-36.603
190.69	-33.210
191.06	-33.747
191.43	-37.094
191.81	-38.317
192.18	-38.394
192.55	-35.620
192.92	-39.472
193.29	-34.910
193.66	-35.427
194.03	-37.698
194.41	-38.868
194.78	-39.675
195.15	-36.051
195.52	-35.956
195.89	-36.383
196.26	-37.106
196.63	-39.412
197.01	-35.446
197.38	-35.313
197.75	-40.728
198.12	-36.369
198.49	-42.532
198.86	-38.122
199.23	-35.563
199.60	-40.304
199.98	-40.144
200.35	-36.423
200.72	-36.483
201.09	-39.756
201.46	-37.756
201.83	-38.111
202.20	-35.896
202.57	-40.100
202.94	-37.360
203.31	-35.852
203.69	-41.967
204.06	-38.543
204.43	-43.307
204.80	-41.379
205.17	-36.602
205.54	-41.298
205.91	-40.434
206.28	-40.184
206.65	-37.764
207.02	-41.643
207.39	-43.288
207.76	-40.723
208.14	-39.731
208.51	-39.344
208.88	-41.797
209.25	-43.527
209.62	-38.448
209.99	-44.248
210.36	-39.047
210.73	-41.461
211.10	-43.921
211.47	-41.604
211.84	-34.910
212.21	-41.212
212.58	-44.753
212.95	-38.308
213.32	-40.351
213.69	-39.694
214.06	-42.488
214.43	-43.308
214.80	-38.407
215.17	-44.199
215.55	-43.317
215.92	-44.646
216.29	-36.848
216.66	-39.277
217.03	-42.170
217.40	-42.971
217.77	-41.533
218.14	-42.163
218.51	-41.386
218.88	-41.263
219.25	-44.987
219.62	-47.021
219.99	-39.656
220.36	-42.341
220.73	-44.814
221.10	-38.824
221.47	-43.614
221.84	-41.860
222.21	-41.917
222.58	-38.223
222.95	-44.667
223.32	-48.366
223.69	-49.702
224.06	-41.837
224.43	-48.269
224.80	-46.818
225.17	-39.428
225.54	-44.841
225.91	-47.154
226.27	-41.047
226.64	-48.285
227.01	-43.564
227.38	-45.839
227.75	-42.112
228.12	-45.449
228.49	-47.628
228.86	-47.672
229.23	-44.393
229.60	-51.552
229.97	-50.172
230.34	-43.269
230.71	-53.939
231.08	-51.184
231.45	-49.186
231.82	-45.909
232.19	-46.473
232.56	-49.140
232.93	-50.107
233.30	-47.516
233.66	-53.145
234.03	-44.383
234.40	-44.848
234.77	-50.353
235.14	-58.201
235.51	-42.898
235.88	-46.798
236.25	-46.607
236.62	-50.036
236.99	-53.590
237.36	-47.626
237.73	-49.925
238.09	-49.257
238.46	-57.746
238.83	-57.899
239.20	-54.611
239.57	-51.137
239.94	-51.860
240.31	-54.179
240.68	-51.252
241.05	-53.664
241.41	-50.475
241.78	-54.839
242.15	-56.964
242.52	-42.847
242.89	-54.873
243.26	-54.944
243.63	-54.539
244.00	-50.587
244.36	-47.909
244.73	-60.326
245.10	-49.309
245.47	-47.563
245.84	-57.752
246.21	-52.318
246.58	-50.457
246.94	-53.025
247.31	-49.852
247.68	-57.602
248.05	-58.118
248.42	-55.711
248.79	-57.039
249.15	-54.738
249.52	-63.184
249.89	-51.159
250.26	-51.907
250.63	-58.861
251.00	-52.455
251.36	-58.526
251.73	-56.245
252.10	-47.300
252.47	-63.945
252.84	-55.043
253.20	-52.140
253.57	-55.511
253.94	-55.899
254.31	-54.299
254.68	-60.841
255.05	-62.852
255.41	-60.268
255.78	-54.297
256.15	-69.238
256.52	-63.697
256.88	-56.539
257.25	-59.455
257.62	-57.341
257.99	-56.361
258.36	-57.759
258.72	-57.001
259.09	-58.441
259.46	-55.284
259.83	-60.637
260.19	-44.340
260.56	-52.955
260.93	-73.959
261.30	-51.829
261.67	-64.145
262.03	-58.031
262.40	-52.594
262.77	-64.721
263.14	-60.517
263.50	-58.333
263.87	-63.896
264.24	-50.000
264.61	-57.912
264.97	-56.867
265.34	-59.321
265.71	-62.425
266.07	-57.643
266.44	-55.209
266.81	-56.898
267.18	-58.320
267.54	-54.613
267.91	-57.459
268.28	-67.067
268.64	-60.801
269.01	-63.250
269.38	-62.615
269.75	-57.965
270.11	-55.064
270.48	-52.139
270.85	-63.766
271.21	-57.815
271.58	-57.155
271.95	-58.279
272.32	-54.056
272.68	-66.293
273.05	-57.033
273.42	-53.504
273.78	-55.435
274.15	-67.299
274.52	-64.397
274.88	-59.037
275.25	-59.498
275.62	-67.511
275.98	-53.716
276.35	-56.119
276.72	-58.368
277.08	-59.064
277.45	-63.692
277.82	-68.512
278.18	-59.243
278.55	-71.587
278.92	-62.389
279.28	-60.799
279.65	-54.223
280.01	-59.163
280.38	-53.959
280.75	-65.310
281.11	-53.050
281.48	-48.062
281.85	-54.408
282.21	-61.010
282.58	-57.242
282.95	-65.175
283.31	-52.662
283.68	-53.079
284.04	-67.450
284.41	-66.026
284.78	-68.426
285.14	-62.191
285.51	-57.591
285.87	-53.186
286.24	-60.870
286.61	-57.440
286.97	-58.730
287.34	-61.798
287.70	-64.040
288.07	-53.708
288.44	-57.908
288.80	-56.540
289.17	-56.368
289.53	-59.931
289.90	-55.816
290.26	-55.293
290.63	-61.077
291.00	-53.005
291.36	-61.452
291.73	-64.018
292.09	-58.879
292.46	-59.807
292.82	-53.249
293.19	-59.127
293.56	-55.990
293.92	-59.676
294.29	-61.854
294.65	-64.595
295.02	-65.096
295.38	-67.867
295.75	-55.442
296.11	-58.464
296.48	-54.719
296.84	-64.530
297.21	-54.311
297.57	-65.557
297.94	-65.917
298.30	-57.340
298.67	-57.075
299.04	-62.775
299.40	-56.849
299.77	-52.003
300.13	-54.617
300.50	-59.766
300.86	-58.065
301.23	-60.490
301.59	-68.576
301.96	-53.961
302.32	-58.436
302.69	-57.821
303.05	-58.170
303.42	-50.877
303.78	-55.321
304.14	-54.488
304.51	-53.173
304.87	-51.172
305.24	-51.942
305.60	-55.757
305.97	-51.085
306.33	-53.193
306.70	-55.246
307.06	-49.094
307.43	-55.618
307.79	-52.296
308.16	-56.468
308.52	-53.166
308.88	-54.787
309.25	-51.245
309.61	-50.924
309.98	-51.431
310.34	-49.215
310.71	-45.595
311.07	-56.886
311.44	-49.892
311.80	-47.345
312.16	-49.154
312.53	-52.954
312.89	-46.217
313.26	-53.957
313.62	-49.675
313.98	-46.943
314.35	-46.902
314.71	-48.378
315.08	-46.772
315.44	-52.491
315.80	-46.763
316.17	-47.120
316.53	-42.576
316.90	-49.932
317.26	-43.873
317.62	-47.635
317.99	-42.008
318.35	-43.258
318.72	-47.207
319.08	-46.005
319.44	-46.928
319.81	-48.229
320.17	-40.524
320.53	-45.413
320.90	-44.597
321.26	-41.151
321.62	-38.557
321.99	-49.068
322.35	-39.767
322.72	-40.037
323.08	-42.486
323.44	-44.815
323.81	-43.801
324.17	-43.187
324.53	-39.303
324.90	-40.850
325.26	-39.784
325.62	-42.497
325.99	-40.517
326.35	-35.326
326.71	-40.762
327.08	-37.715
327.44	-33.916
327.80	-34.785
328.16	-33.059
328.53	-40.164
328.89	-38.184
329.25	-39.745
329.62	-28.213
329.98	-28.811
330.34	-28.742
330.71	-34.679
331.07	-32.394
331.43	-30.891
331.79	-28.659
332.16	-27.829
332.52	-32.830
332.88	-28.603
333.24	-31.108
333.61	-27.853
333.97	-28.931
334.33	-24.369
334.70	-26.780
335.06	-26.228
335.42	-27.848
335.78	-26.341
336.15	-23.410
336.51	-26.653
336.87	-24.845
337.23	-22.662
337.60	-24.953
337.96	-24.236
338.32	-24.455
338.68	-22.807
339.04	-22.088
339.41	-21.105
339.77	-21.830
340.13	-22.765
340.49	-22.746
340.86	-20.449
341.22	-19.789
341.58	-20.524
341.94	-20.558
342.30	-20.853
342.67	-18.773
343.03	-19.749
343.39	-18.562
343.75	-17.816
344.11	-17.988
344.48	-18.502
344.84	-18.926
345.20	-17.811
345.56	-17.230
345.92	-18.898
346.28	-17.552
346.65	-16.743
347.01	-15.726
347.37	-15.673
347.73	-15.570
348.09	-17.043
348.45	-14.617
348.82	-14.956
349.18	-15.214
349.54	-14.306
349.90	-15.104
350.26	-13.269
350.62	-16.488
350.98	-14.357
351.35	-13.985
351.71	-13.302
352.07	-12.571
352.43	-13.753
352.79	-12.658
353.15	-12.728
353.51	-12.860
353.87	-13.542
354.24	-11.357
354.60	-11.284
354.96	-12.049
355.32	-10.281
355.68	-11.843
356.04	-11.866
356.40	-11.155
356.76	-10.596
357.12	-9.591
357.48	-11.809
357.85	-10.364
358.21	-10.122
358.57	-10.944
358.93	-9.520
359.29	-10.498
359.65	-9.561
360.01	-10.054
360.37	-9.738
360.73	-9.326
361.09	-8.344
361.45	-10.550
361.81	-9.645
362.17	-9.004
362.53	-7.955
362.89	-9.052
363.25	-8.923
363.62	-8.267
363.98	-8.254
364.34	-8.276
364.70	-7.869
365.06	-7.645
365.42	-7.325
365.78	-8.266
366.14	-7.921
366.50	-7.479
366.86	-6.381
367.22	-7.838
367.58	-7.108
367.94	-7.243
368.30	-6.986
368.66	-5.666
369.02	-6.242
369.38	-5.985
369.74	-6.330
370.10	-6.191
370.46	-5.870
370.82	-7.061
371.18	-5.377
371.54	-5.565
371.90	-5.949
372.26	-5.997
372.62	-4.925
372.98	-4.852
373.33	-5.748
373.69	-6.205
374.05	-4.937
374.41	-5.003
374.77	-4.492
375.13	-5.264
375.49	-5.048
375.85	-5.120
376.21	-4.176
376.57	-5.197
376.93	-4.133
377.29	-3.812
377.65	-3.502
378.01	-4.539
378.37	-4.547
378.73	-4.353
379.08	-4.018
379.44	-3.472
379.80	-3.478
380.16	-3.018
380.52	-3.490
380.88	-3.578
381.24	-3.872
381.60	-3.808
381.96	-2.888
382.32	-2.882
382.67	-3.786
383.03	-2.791
383.39	-2.676
383.75	-2.447
384.11	-2.503
384.47	-2.440
384.83	-2.449
385.19	-1.913
385.54	-1.696
385.90	-2.069
386.26	-1.965
386.62	-1.830
386.98	-1.652
387.34	-1.935
387.70	-1.510
388.05	-1.457
388.41	-1.276
388.77	-0.838
389.13	-0.342
389.49	-0.850
389.85	-0.324
390.20	-0.338
390.56	-0.116
390.92	-0.428
391.28	-0.091
391.64	-0.147
391.99	0.152
392.35	-0.029
392.71	0.383
393.07	0.252
393.43	0.670
393.78	0.999
394.14	0.915
394.50	1.015
394.86	1.132
395.22	1.124
395.57	1.039
395.93	1.391
396.29	1.141
396.65	1.709
397.00	1.803
397.36	2.028
397.72	2.097
398.08	2.441
398.43	2.503
398.79	2.643
399.15	2.653
399.51	3.066
399.86	3.128
400.22	3.020
400.58	3.283
400.94	3.226
401.29	3.463
401.65	3.282
402.01	3.652
402.37	3.699
402.72	4.126
403.08	4.244
403.44	4.186
403.79	4.512
404.15	4.112
404.51	4.679
404.86	4.423
405.22	4.861
405.58	4.884
405.94	4.890
406.29	5.139
406.65	5.250
407.01	5.222
407.36	5.568
407.72	5.413
408.08	5.847
408.43	5.822
408.79	6.083
409.15	6.201
409.50	6.492
409.86	6.134
410.22	6.380
410.57	6.550
410.93	6.811
411.29	7.032
411.64	7.159
412.00	7.286
412.35	7.524
412.71	7.259
413.07	7.581
413.42	7.795
413.78	7.590
414.14	7.795
414.49	7.764
414.85	8.220
415.20	8.385
415.56	8.294
415.92	8.367
416.27	8.760
416.63	8.819
416.98	8.887
417.34	8.994
417.70	9.050
418.05	9.174
418.41	9.347
418.76	9.462
419.12	9.543
419.47	9.690
419.83	9.721
420.19	10.165
420.54	10.070
420.90	9.931
421.25	10.309
421.61	10.367
421.96	10.485
422.32	10.541
422.67	10.778
423.03	10.910
423.39	11.123
423.74	11.169
424.10	11.374
424.45	11.416
424.81	11.543
425.16	11.487
425.52	11.737
425.87	11.693
426.23	11.829
426.58	11.735
426.94	12.175
427.29	12.227
427.65	12.336
428.00	12.382
428.36	12.559
428.71	12.519
429.07	12.698
429.42	12.894
429.78	13.040
430.13	13.333
430.49	13.296
430.84	13.486
431.19	13.419
431.55	13.549
431.90	13.623
432.26	13.825
432.61	14.039
432.97	13.857
433.32	14.019
433.68	14.198
434.03	14.201
434.39	14.431
434.74	14.463
435.09	14.674
435.45	14.828
435.80	14.701
436.16	14.959
436.51	14.849
436.86	15.022
437.22	15.118
437.57	15.244
437.93	15.389
438.28	15.560
438.63	15.737
438.99	15.668
439.34	15.811
439.70	15.958
440.05	15.949
440.40	16.229
440.76	16.072
441.11	16.175
441.47	16.334
441.82	16.479
442.17	16.494
442.53	16.690
442.88	16.676
443.23	16.906
443.59	16.812
443.94	16.971
444.29	17.014
444.65	17.169
445.00	17.064
445.35	17.458
445.71	17.456
446.06	17.554
446.41	17.610
446.77	17.672
447.12	17.898
447.47	17.888
447.83	17.919
448.18	18.131
448.53	18.236
448.89	18.262
449.24	18.327
449.59	18.414
449.94	18.583
450.30	18.547
450.65	18.758
451.00	18.757
451.36	18.930
451.71	18.875
452.06	19.115
452.41	19.088
452.77	19.137
453.12	19.259
453.47	19.530
453.82	19.555
454.18	19.632
454.53	19.657
454.88	19.731
455.23	19.832
455.59	19.939
455.94	20.023
456.29	20.300
456.64	20.174
457.00	20.265
457.35	20.526
457.70	20.499
458.05	20.581
458.40	20.685
458.76	20.815
459.11	20.841
459.46	21.153
459.81	21.067
460.16	21.084
460.52	21.268
460.87	21.356
461.22	21.338
461.57	21.517
461.92	21.621
462.28	21.645
462.63	21.755
462.98	21.931
463.33	21.906
463.68	22.040
464.03	22.029
464.38	22.192
464.74	22.301
465.09	22.304
465.44	22.409
465.79	22.535
466.14	22.651
466.49	22.684
466.84	22.850
467.20	22.766
467.55	22.861
467.90	22.950
468.25	23.274
468.60	23.104
468.95	23.216
469.30	23.237
469.65	23.299
470.00	23.443
470.36	23.475
470.71	23.458
471.06	23.617
471.41	23.735
471.76	23.707
472.11	23.683
472.46	23.800
472.81	23.861
473.16	23.860
473.51	23.913
473.86	23.963
474.21	23.991
474.56	24.038
474.91	24.135
475.26	24.074
475.62	24.203
475.97	24.272
476.32	24.293
476.67	24.247
477.02	24.214
477.37	24.254
477.72	24.284
478.07	24.354
478.42	24.255
478.77	24.369
479.12	24.313
479.47	24.386
479.82	24.373
480.17	24.404
480.52	24.372
480.87	24.462
481.22	24.486
481.57	24.478
481.92	24.378
482.27	24.428
482.62	24.522
482.97	24.454
483.32	24.527
483.67	24.519
484.02	24.596
484.36	24.509
484.71	24.563
485.06	24.553
485.41	24.729
485.76	24.708
486.11	24.726
486.46	24.810
486.81	24.797
487.16	24.886
487.51	24.911
487.86	24.977
488.21	24.962
488.56	25.042
488.91	25.073
489.25	25.187
489.60	25.156
489.95	25.269
490.30	25.339
490.65	25.419
491.00	25.536
491.35	25.500
491.70	25.550
492.05	25.732
492.39	25.814
492.74	25.823
493.09	25.912
493.44	25.980
493.79	26.034
494.14	26.107
494.49	26.164
494.83	26.281
495.18	26.384
495.53	26.413
495.88	26.467
496.23	26.541
496.58	26.685
496.92	26.723
497.27	26.846
497.62	26.911
497.97	26.955
498.32	27.007
498.67	27.104
499.01	27.151
499.36	27.221
499.71	27.334
500.06	27.408
500.41	27.483
500.75	27.517
501.10	27.608
501.45	27.605
501.80	27.668
502.14	27.770
502.49	27.832
502.84	27.871
503.19	27.926
503.53	27.983
503.88	28.029
504.23	28.053
504.58	28.185
504.92	28.180
505.27	28.203
505.62	28.243
505.97	28.292
506.31	28.294
506.66	28.363
507.01	28.404
507.36	28.333
507.70	28.342
508.05	28.395
508.40	28.349
508.74	28.375
509.09	28.341
509.44	28.271
509.79	28.362
510.13	28.273
510.48	28.299
510.83	28.255
511.17	28.196
511.52	28.231
511.87	28.222
512.21	28.227
512.56	28.174
512.91	28.255
513.25	28.254
513.60	28.235
513.95	28.300
514.29	28.301
514.64	28.380
514.98	28.356
515.33	28.451
515.68	28.500
516.02	28.567
516.37	28.470
516.72	28.512
517.06	28.616
517.41	28.707
517.75	28.618
518.10	28.713
518.45	28.663
518.79	28.742
519.14	28.787
519.48	28.778
519.83	28.743
520.18	28.849
520.52	28.794
520.87	28.850
521.21	28.926
521.56	28.868
521.90	28.911
522.25	28.859
522.60	28.787
522.94	28.897
523.29	28.896
523.63	28.869
523.98	28.851
524.32	28.826
524.67	28.864
525.01	28.793
525.36	28.699
525.70	28.757
526.05	28.666
526.39	28.665
526.74	28.555
527.08	28.509
527.43	28.476
527.77	28.471
528.12	28.346
528.46	28.298
528.81	28.203
529.15	28.080
529.50	28.068
529.84	27.995
530.19	27.914
530.53	27.796
530.88	27.743
531.22	27.550
531.57	27.479
531.91	27.343
532.26	27.170
532.60	27.100
532.94	26.950
533.29	26.843
533.63	26.618
533.98	26.478
534.32	26.307
534.67	26.125
535.01	25.948
535.35	25.765
535.70	25.499
536.04	25.318
536.39	25.184
536.73	24.986
537.07	24.758
537.42	24.558
537.76	24.372
538.11	24.168
538.45	23.961
538.79	23.841
539.14	23.517
539.48	23.414
539.82	23.186
540.17	22.999
540.51	22.779
540.85	22.652
541.20	22.507
541.54	22.298
541.89	22.234
542.23	22.014
542.57	21.896
542.92	21.800
543.26	21.751
543.60	21.645
543.94	21.566
544.29	21.506
544.63	21.400
544.97	21.396
545.32	21.358
545.66	21.349
546.00	21.345
546.35	21.309
546.69	21.339
547.03	21.269
547.37	21.357
547.72	21.349
548.06	21.386
548.40	21.377
548.75	21.443
549.09	21.493
549.43	21.579
549.77	21.596
550.12	21.722
550.46	21.797
550.80	21.848
551.14	21.952
551.49	21.993
551.83	22.188
552.17	22.235
552.51	22.395
552.85	22.616
553.20	22.691
553.54	22.850
553.88	23.019
554.22	23.176
554.56	23.308
554.91	23.624
555.25	23.769
555.59	23.969
555.93	24.194
556.27	24.405
556.62	24.659
556.96	24.885
557.30	25.034
557.64	25.263
557.98	25.486
558.32	25.684
558.67	25.995
559.01	26.256
559.35	26.404
559.69	26.662
560.03	26.819
560.37	27.110
560.71	27.332
561.05	27.531
561.40	27.731
561.74	27.886
562.08	28.117
562.42	28.313
562.76	28.516
563.10	28.707
563.44	28.846
563.78	29.014
564.12	29.198
564.46	29.369
564.81	29.425
565.15	29.574
565.49	29.688
565.83	29.746
566.17	29.913
566.51	29.955
566.85	30.132
567.19	30.121
567.53	30.206
567.87	30.240
568.21	30.314
568.55	30.359
568.89	30.351
569.23	30.385
569.57	30.461
569.91	30.370
570.25	30.429
570.59	30.410
570.93	30.392
571.27	30.347
571.61	30.381
571.95	30.298
572.29	30.227
572.63	30.185
572.97	30.132
573.31	30.099
573.65	29.941
573.99	29.913
574.33	29.863
574.67	29.694
575.01	29.613
575.35	29.503
575.69	29.395
576.03	29.309
576.37	29.204
576.71	29.087
577.05	28.940
577.39	28.811
577.73	28.684
578.06	28.516
578.40	28.363
578.74	28.175
579.08	28.064
579.42	27.889
579.76	27.738
580.10	27.489
580.44	27.349
580.78	27.165
581.12	26.983
581.45	26.805
581.79	26.616
582.13	26.429
582.47	26.268
582.81	26.142
583.15	25.945
583.49	25.840
583.83	25.603
584.16	25.448
584.50	25.270
584.84	25.140
585.18	24.990
585.52	24.864
585.86	24.746
586.19	24.581
586.53	24.457
586.87	24.336
587.21	24.102
587.55	24.032
587.88	23.946
588.22	23.746
588.56	23.555
588.90	23.391
589.24	23.209
589.57	23.013
589.91	22.823
590.25	22.615
590.59	22.423
590.92	22.261
591.26	22.036
591.60	21.811
591.94	21.610
592.27	21.369
592.61	21.076
592.95	20.902
593.29	20.633
593.62	20.393
593.96	20.107
594.30	19.796
594.64	19.547
594.97	19.269
595.31	18.941
595.65	18.515
595.98	18.195
596.32	17.842
596.66	17.440
597.00	17.089
597.33	16.623
597.67	16.196
598.01	15.795
598.34	15.379
598.68	14.971
599.02	14.566
599.35	14.116
599.69	13.828
600.03	13.421
600.36	13.092
600.70	12.776
601.03	12.449
601.37	12.180
601.71	11.944
602.04	11.693
602.38	11.409
602.72	11.156
603.05	10.906
603.39	10.663
603.72	10.460
604.06	10.205
604.40	9.967
604.73	9.676
605.07	9.450
605.40	9.215
605.74	9.014
606.08	8.700
606.41	8.433
606.75	8.222
607.08	7.976
607.42	7.701
607.75	7.466
608.09	7.204
608.42	6.931
608.76	6.685
609.10	6.453
609.43	6.199
609.77	5.981
610.10	5.744
610.44	5.511
610.77	5.284
611.11	5.045
611.44	4.803
611.78	4.599
612.11	4.407
612.45	4.199
612.78	3.963
613.12	3.816
613.45	3.597
613.79	3.433
614.12	3.251
614.46	3.076
614.79	2.959
615.13	2.817
615.46	2.653
615.79	2.530
616.13	2.388
616.46	2.299
616.80	2.181
617.13	2.071
617.47	2.008
617.80	1.930
618.13	1.865
618.47	1.759
618.80	1.711
619.14	1.658
619.47	1.571
619.81	1.513
620.14	1.462
620.47	1.404
620.81	1.358
621.14	1.283
621.47	1.273
621.81	1.234
622.14	1.191
622.48	1.165
622.81	1.113
623.14	1.108
623.48	1.065
623.81	1.032
624.14	0.982
624.48	0.961
624.81	0.969
625.14	0.948
625.48	0.913
625.81	0.898
626.14	0.906
626.48	0.901
626.81	0.911
627.14	0.902
627.48	0.926
627.81	0.909
628.14	0.924
628.47	0.955
628.81	0.971
629.14	0.999
629.47	1.021
629.81	1.062
630.14	1.073
630.47	1.116
630.80	1.188
631.14	1.222
631.47	1.286
631.80	1.342
632.13	1.426
632.47	1.506
632.80	1.582
633.13	1.673
633.46	1.773
633.79	1.885
634.13	1.985
634.46	2.111
634.79	2.259
635.12	2.399
635.45	2.523
635.79	2.673
636.12	2.852
636.45	3.030
636.78	3.171
637.11	3.384
637.45	3.588
637.78	3.756
638.11	3.961
638.44	4.203
638.77	4.435
639.10	4.632
639.44	4.899
639.77	5.097
640.10	5.356
640.43	5.616
640.76	5.860
641.09	6.095
641.42	6.341
641.75	6.590
642.08	6.825
642.42	7.067
642.75	7.333
643.08	7.566
643.41	7.797
643.74	8.021
644.07	8.299
644.40	8.486
644.73	8.734
645.06	8.955
645.39	9.210
645.72	9.445
646.05	9.645
646.38	9.783
646.72	10.010
647.05	10.188
647.38	10.381
647.71	10.535
648.04	10.718
648.37	10.861
648.70	10.993
649.03	11.128
649.36	11.244
649.69	11.363
650.02	11.418
650.35	11.461
650.68	11.515
651.01	11.538
651.34	11.550
651.67	11.571
652.00	11.518
652.33	11.464
652.66	11.394
652.99	11.273
653.31	11.221
653.64	11.073
653.97	10.908
654.30	10.759
654.63	10.544
654.96	10.331
655.29	10.102
655.62	9.858
655.95	9.616
656.28	9.356
656.61	9.094
656.94	8.812
657.27	8.567
657.60	8.293
657.92	8.040
658.25	7.819
658.58	7.557
658.91	7.358
659.24	7.171
659.57	6.945
659.90	6.745
660.23	6.565
660.55	6.351
660.88	6.219
661.21	6.028
661.54	5.847
661.87	5.698
662.20	5.517
662.52	5.370
662.85	5.216
663.18	5.096
663.51	4.977
663.84	4.788
664.16	4.650
664.49	4.521
664.82	4.387
665.15	4.272
665.48	4.171
665.80	4.043
666.13	3.936
666.46	3.817
666.79	3.722
667.12	3.626
667.44	3.511
667.77	3.457
668.10	3.368
668.43	3.259
668.75	3.227
669.08	3.130
669.41	3.038
669.73	2.984
670.06	2.931
670.39	2.848
670.72	2.822
671.04	2.760
671.37	2.700
671.70	2.689
672.02	2.656
672.35	2.586
672.68	2.572
673.00	2.537
673.33	2.482
673.66	2.456
673.98	2.422
674.31	2.402
674.64	2.388
674.96	2.355
675.29	2.381
675.62	2.321
675.94	2.314
676.27	2.288
676.60	2.291
676.92	2.273
677.25	2.257
677.58	2.236
677.90	2.227
678.23	2.252
678.55	2.209
678.88	2.208
679.21	2.214
679.53	2.204
679.86	2.173
680.18	2.172
680.51	2.170
680.83	2.128
681.16	2.111
681.49	2.087
681.81	2.093
682.14	2.051
682.46	2.047
682.79	2.005
683.11	2.011
683.44	1.951
683.76	1.932
684.09	1.948
684.41	1.922
684.74	1.906
685.06	1.878
685.39	1.895
685.71	1.843
686.04	1.850
686.36	1.806
686.69	1.849
687.01	1.795
687.34	1.822
687.66	1.806
687.99	1.766
688.31	1.729
688.64	1.770
688.96	1.704
689.29	1.689
689.61	1.693
689.93	1.617
690.26	1.611
690.58	1.604
690.91	1.572
691.23	1.486
691.56	1.474
691.88	1.460
692.20	1.406
692.53	1.395
692.85	1.311
693.18	1.283
693.50	1.233
693.82	1.200
694.15	1.131
694.47	1.077
694.79	0.987
695.12	0.976
695.44	0.916
695.76	0.855
696.09	0.804
696.41	0.762
696.73	0.694
697.06	0.665
697.38	0.600
697.70	0.539
698.03	0.501
698.35	0.456
698.67	0.387
699.00	0.379
699.32	0.305
699.64	0.248
699.97	0.206
700.29	0.149
700.61	0.108
700.93	0.121
701.26	0.087
701.58	0.057
701.90	0.023
702.22	-0.021
702.55	-0.054
702.87	-0.096
703.19	-0.065
703.51	-0.095
703.84	-0.129
704.16	-0.146
704.48	-0.194
704.80	-0.180
705.13	-0.181
705.45	-0.185
705.77	-0.210
706.09	-0.195
706.41	-0.230
706.74	-0.240
707.06	-0.243
707.38	-0.249
707.70	-0.249
708.02	-0.255
708.34	-0.238
708.67	-0.286
708.99	-0.291
709.31	-0.303
709.63	-0.294
709.95	-0.316
710.27	-0.328
710.59	-0.315
710.92	-0.316
711.24	-0.330
711.56	-0.296
711.88	-0.312
712.20	-0.351
712.52	-0.311
712.84	-0.371
713.16	-0.349
713.48	-0.347
713.80	-0.378
714.12	-0.375
714.45	-0.338
714.77	-0.416
715.09	-0.394
715.41	-0.369
715.73	-0.340
716.05	-0.418
716.37	-0.360
716.69	-0.416
717.01	-0.402
717.33	-0.428
717.65	-0.437
717.97	-0.433
718.29	-0.446
718.61	-0.412
718.93	-0.461
719.25	-0.405
719.57	-0.437
719.89	-0.473
720.21	-0.459
720.53	-0.505
720.85	-0.509
721.17	-0.493
721.49	-0.469
721.81	-0.541
722.13	-0.568
722.45	-0.628
722.77	-0.582
723.09	-0.537
723.41	-0.542
723.72	-0.623
724.04	-0.598
724.36	-0.560
724.68	-0.612
725.00	-0.581
725.32	-0.636
725.64	-0.620
725.96	-0.656
726.28	-0.674
726.60	-0.688
726.91	-0.691
727.23	-0.718
727.55	-0.624
727.87	-0.718
728.19	-0.705
728.51	-0.733
728.83	-0.697
729.14	-0.785
729.46	-0.786
729.78	-0.802
730.10	-0.784
730.42	-0.819
730.74	-0.846
731.05	-0.843
731.37	-0.827
731.69	-0.923
732.01	-0.823
732.33	-0.850
732.64	-0.783
732.96	-0.800
733.28	-0.819
733.60	-0.930
733.92	-0.800
734.23	-0.956
734.55	-0.935
734.87	-0.891
735.19	-0.874
735.50	-0.854
735.82	-0.917
736.14	-0.848
736.45	-0.810
736.77	-0.775
737.09	-0.908
737.41	-0.884
737.72	-0.903
738.04	-0.902
738.36	-0.909
738.67	-0.898
738.99	-0.934
739.31	-0.854
739.63	-0.889
739.94	-0.901
740.26	-0.809
740.58	-0.813
740.89	-0.848
741.21	-0.837
741.52	-0.812
741.84	-0.808
742.16	-0.799
742.47	-0.784
742.79	-0.899
743.11	-0.783
743.42	-0.827
743.74	-0.737
744.05	-0.756
744.37	-0.795
744.69	-0.881
745.00	-0.757
745.32	-0.785
745.63	-0.750
745.95	-0.747
746.27	-0.739
746.58	-0.770
746.90	-0.743
747.21	-0.756
747.53	-0.735
747.84	-0.723
748.16	-0.722
748.47	-0.800
748.79	-0.759
749.10	-0.803
749.42	-0.757
749.74	-0.701
750.05	-0.665
750.37	-0.748
750.68	-0.741
751.00	-0.744
751.31	-0.707
751.62	-0.756
751.94	-0.699
752.25	-0.686
752.57	-0.668
752.88	-0.644
753.20	-0.655
753.51	-0.675
753.83	-0.623
754.14	-0.671
754.46	-0.682
754.77	-0.610
755.08	-0.666
755.40	-0.667
755.71	-0.677
756.03	-0.662
756.34	-0.669
756.66	-0.697
756.97	-0.729
757.28	-0.626
757.60	-0.616
757.91	-0.652
758.22	-0.685
758.54	-0.654
758.85	-0.627
759.17	-0.640
759.48	-0.642
759.79	-0.565
760.11	-0.598
760.42	-0.655
760.73	-0.575
761.05	-0.586
761.36	-0.601
761.67	-0.620
761.99	-0.589
762.30	-0.539
762.61	-0.629
762.92	-0.612
763.24	-0.605
763.55	-0.593
763.86	-0.520
764.18	-0.616
764.49	-0.576
764.80	-0.592
765.11	-0.548
765.43	-0.600
765.74	-0.661
766.05	-0.605
766.36	-0.623
766.68	-0.536
766.99	-0.562
767.30	-0.594
767.61	-0.592
767.93	-0.585
768.24	-0.600
768.55	-0.587
768.86	-0.519
769.17	-0.542
769.49	-0.573
769.80	-0.561
770.11	-0.577
770.42	-0.512
770.73	-0.586
771.04	-0.575
771.36	-0.551
771.67	-0.580
771.98	-0.594
772.29	-0.613
772.60	-0.583
772.91	-0.628
773.22	-0.682
773.54	-0.577
773.85	-0.639
774.16	-0.567
774.47	-0.579
774.78	-0.594
775.09	-0.645
775.40	-0.580
775.71	-0.601
776.02	-0.624
776.33	-0.709
776.64	-0.619
776.96	-0.601
777.27	-0.633
777.58	-0.653
777.89	-0.686
778.20	-0.624
778.51	-0.613
778.82	-0.710
779.13	-0.623
779.44	-0.670
779.75	-0.645
780.06	-0.616
780.37	-0.682
780.68	-0.665
780.99	-0.699
781.30	-0.654
781.61	-0.663
781.92	-0.683
782.23	-0.734
782.54	-0.746
782.85	-0.651
783.16	-0.728
783.47	-0.730
783.78	-0.793
784.08	-0.752
784.39	-0.754
784.70	-0.728
785.01	-0.790
785.32	-0.702
785.63	-0.761
785.94	-0.782
786.25	-0.790
786.56	-0.833
786.87	-0.844
787.18	-0.826
787.48	-0.806
787.79	-0.863
788.10	-0.803
788.41	-0.846
788.72	-0.821
789.03	-0.764
789.34	-0.923
789.64	-0.827
789.95	-0.798
790.26	-0.880
790.57	-0.911
790.88	-0.848
791.19	-0.877
791.49	-0.949
791.80	-0.874
792.11	-0.957
792.42	-1.037
792.73	-0.974
793.03	-1.043
793.34	-1.024
793.65	-0.896
793.96	-1.019
794.27	-1.118
794.57	-1.024
794.88	-1.122
795.19	-1.015
795.50	-1.077
795.80	-1.075
796.11	-1.088
796.42	-1.073
796.72	-1.190
797.03	-1.156
797.34	-1.131
797.65	-1.128
797.95	-1.244
798.26	-1.212
798.57	-1.149
798.87	-1.209
799.18	-1.226
799.49	-1.222
799.79	-1.268
800.10	-1.252
800.41	-1.281
800.71	-1.365
801.02	-1.203
801.33	-1.292
801.63	-1.233
801.94	-1.314
802.24	-1.371
802.55	-1.436
802.86	-1.303
803.16	-1.230
803.47	-1.313
803.77	-1.467
804.08	-1.516
804.39	-1.393
804.69	-1.472
805.00	-1.432
805.30	-1.496
805.61	-1.539
805.91	-1.605
806.22	-1.425
806.53	-1.537
806.83	-1.615
807.14	-1.545
807.44	-1.581
807.75	-1.615
808.05	-1.581
808.36	-1.644
808.66	-1.649
808.97	-1.683
809.27	-1.604
809.58	-1.751
809.88	-1.743
810.19	-1.635
810.49	-1.666
810.80	-1.963
811.10	-1.745
811.41	-1.747
811.71	-1.863
812.01	-1.889
812.32	-1.906
812.62	-1.879
812.93	-1.974
813.23	-1.791
813.54	-1.994
813.84	-1.958
814.14	-2.010
814.45	-1.984
814.75	-1.980
815.06	-1.891
815.36	-2.051
815.66	-2.174
815.97	-2.427
816.27	-2.074
816.58	-2.035
816.88	-2.277
817.18	-2.261
817.49	-2.436
817.79	-2.278
818.09	-2.064
818.40	-2.500
818.70	-2.433
819.00	-2.485
819.31	-2.388
819.61	-2.503
819.91	-2.376
820.21	-2.563
820.52	-2.588
820.82	-2.708
821.12	-2.717
821.43	-2.630
821.73	-2.733
822.03	-2.920
822.33	-2.623
822.64	-3.013
822.94	-3.119
823.24	-2.909
823.54	-2.968
823.85	-3.115
824.15	-2.909
824.45	-2.945
824.75	-3.093
825.05	-3.242
825.36	-3.033
825.66	-3.519
825.96	-3.193
826.26	-3.325
826.56	-3.206
826.87	-3.437
827.17	-3.098
827.47	-4.174
827.77	-3.625
828.07	-3.879
828.37	-3.879
828.67	-3.799
828.98	-4.191
829.28	-3.827
829.58	-3.491
829.88	-4.033
830.18	-4.081
830.48	-4.252
830.78	-4.325
831.08	-4.674
831.38	-4.422
831.69	-4.463
831.99	-4.694
832.29	-4.750
832.59	-4.963
832.89	-5.136
833.19	-4.934
833.49	-5.289
833.79	-5.265
834.09	-5.272
834.39	-5.470
834.69	-5.486
834.99	-6.091
835.29	-5.998
835.59	-5.999
835.89	-5.991
836.19	-6.197
836.49	-6.239
836.79	-7.100
837.09	-6.758
837.39	-6.742
837.69	-7.374
837.99	-6.928
838.29	-7.373
838.59	-7.643
838.89	-7.522
839.19	-7.304
839.49	-8.203
839.79	-8.143
840.09	-8.398
840.39	-9.017
840.68	-8.076
840.98	-8.198
841.28	-8.978
841.58	-9.412
841.88	-8.759
842.18	-10.562
842.48	-9.854
842.78	-9.827
843.08	-10.998
843.37	-10.995
843.67	-10.769
843.97	-10.673
844.27	-12.029
844.57	-11.597
844.87	-11.834
845.16	-11.917
845.46	-13.006
845.76	-13.204
846.06	-13.752
846.36	-12.418
846.66	-14.315
846.95	-13.897
847.25	-13.046
847.55	-15.259
847.85	-15.633
848.14	-14.068
848.44	-15.119
848.74	-17.514
849.04	-16.791
849.33	-16.283
849.63	-18.733
849.93	-18.694
850.23	-18.613
850.52	-18.547
850.82	-18.212
851.12	-18.487
851.42	-18.943
851.71	-19.334
852.01	-21.681
852.31	-19.723
852.60	-20.781
852.90	-21.195
853.20	-23.494
853.49	-21.441
853.79	-23.524
854.09	-24.699
854.38	-26.050
854.68	-24.094
854.98	-26.699
855.27	-24.544
855.57	-25.090
855.86	-26.595
856.16	-26.918
856.46	-25.901
856.75	-27.554
857.05	-27.818
857.34	-28.465
857.64	-26.455
857.94	-30.587
858.23	-27.099
858.53	-28.353
858.82	-30.131
859.12	-29.805
859.41	-27.009
859.71	-29.497
860.01	-26.266
860.30	-32.346
860.60	-29.778
860.89	-27.925
861.19	-27.089
861.48	-30.871
861.78	-31.215
862.07	-31.125
862.37	-29.734
862.66	-31.379
862.96	-29.160
863.25	-31.118
863.55	-32.237
863.84	-30.860
864.13	-28.404
864.43	-30.585
864.72	-32.682
865.02	-30.080
865.31	-30.561
865.61	-28.800
865.90	-29.567
866.19	-29.097
866.49	-29.800
866.78	-27.514
867.08	-31.055
867.37	-29.736
867.66	-30.920
867.96	-32.625
868.25	-29.950
868.55	-32.492
868.84	-28.110
869.13	-29.054
869.43	-27.753
869.72	-33.204
870.01	-30.034
870.31	-30.827
870.60	-30.395
870.89	-28.566
871.19	-30.322
871.48	-30.398
871.77	-32.979
872.07	-29.205
872.36	-31.153
872.65	-27.166
872.94	-32.530
873.24	-31.120
873.53	-29.833
873.82	-26.644
874.11	-30.862
874.41	-32.795
874.70	-30.221
>>>>>End Processed Spectral Data<<<<<
