SpectraSuite Data File
++++++++++++++++++++++++++++++++++++
Date: Sun May 03 17:17:46 BST 2015
User: mpfc3
Dark Spectrum Present: Yes
Reference Spectrum Present: Yes
Number of Sampled Component Spectra: 1
Spectrometers: USB2E3636
Integration Time (usec): 30000 (USB2E3636)
Spectra Averaged: 100 (USB2E3636)
Boxcar Smoothing: 0 (USB2E3636)
Correct for Electrical Dark: No (USB2E3636)
Strobe/Lamp Enabled: No (USB2E3636)
Correct for Detector Non-linearity: No (USB2E3636)
Correct for Stray Light: No (USB2E3636)
Number of Pixels in Processed Spectrum: 2048
>>>>>Begin Processed Spectral Data<<<<<
180.28	0.000
180.65	350.207
181.02	272.619
181.39	309.302
181.77	280.420
182.14	262.847
182.51	324.167
182.88	356.221
183.25	282.927
183.63	291.797
184.00	299.219
184.37	354.237
184.74	242.581
185.11	366.667
185.49	297.674
185.86	422.989
186.23	299.618
186.60	279.137
186.97	293.916
187.35	261.765
187.72	302.941
188.09	357.277
188.46	334.177
188.83	256.401
189.20	-270.522
189.58	-33.140
189.95	-33.820
190.32	-30.849
190.69	-27.701
191.06	-32.343
191.43	-34.618
191.81	-34.884
192.18	-33.424
192.55	-28.156
192.92	-36.174
193.29	-30.343
193.66	-27.536
194.03	-35.406
194.41	-33.370
194.78	-34.624
195.15	-34.276
195.52	-31.573
195.89	-32.440
196.26	-32.046
196.63	-33.152
197.01	-30.881
197.38	-30.354
197.75	-38.095
198.12	-29.459
198.49	-35.369
198.86	-35.238
199.23	-33.116
199.60	-33.145
199.98	-34.814
200.35	-31.003
200.72	-30.202
201.09	-30.565
201.46	-33.002
201.83	-30.220
202.20	-34.257
202.57	-32.467
202.94	-34.564
203.31	-32.598
203.69	-37.107
204.06	-33.221
204.43	-37.929
204.80	-35.460
205.17	-33.928
205.54	-32.401
205.91	-36.893
206.28	-35.348
206.65	-34.341
207.02	-37.847
207.39	-34.654
207.76	-36.639
208.14	-32.941
208.51	-34.200
208.88	-33.681
209.25	-40.598
209.62	-33.182
209.99	-36.755
210.36	-35.096
210.73	-35.078
211.10	-37.008
211.47	-35.154
211.84	-30.405
212.21	-36.293
212.58	-34.861
212.95	-34.362
213.32	-32.339
213.69	-33.392
214.06	-37.861
214.43	-36.347
214.80	-32.212
215.17	-38.244
215.55	-37.562
215.92	-39.261
216.29	-35.091
216.66	-33.294
217.03	-35.327
217.40	-41.504
217.77	-36.712
218.14	-36.877
218.51	-36.829
218.88	-40.527
219.25	-39.139
219.62	-39.270
219.99	-39.595
220.36	-36.924
220.73	-37.196
221.10	-34.459
221.47	-36.782
221.84	-34.318
222.21	-40.000
222.58	-35.122
222.95	-36.070
223.32	-42.745
223.69	-42.091
224.06	-39.605
224.43	-42.906
224.80	-40.649
225.17	-35.697
225.54	-38.280
225.91	-43.089
226.27	-35.682
226.64	-44.723
227.01	-42.046
227.38	-43.289
227.75	-34.643
228.12	-37.599
228.49	-38.791
228.86	-37.967
229.23	-37.508
229.60	-44.062
229.97	-45.567
230.34	-44.849
230.71	-44.713
231.08	-48.457
231.45	-41.927
231.82	-38.810
232.19	-41.494
232.56	-47.851
232.93	-47.109
233.30	-42.897
233.66	-48.373
234.03	-38.974
234.40	-41.010
234.77	-43.432
235.14	-50.416
235.51	-40.696
235.88	-41.621
236.25	-43.866
236.62	-41.744
236.99	-49.735
237.36	-42.318
237.73	-50.452
238.09	-43.595
238.46	-50.778
238.83	-49.031
239.20	-49.891
239.57	-43.654
239.94	-44.420
240.31	-51.320
240.68	-43.004
241.05	-45.004
241.41	-40.600
241.78	-43.961
242.15	-52.113
242.52	-40.578
242.89	-45.502
243.26	-49.071
243.63	-46.512
244.00	-43.402
244.36	-45.194
244.73	-50.932
245.10	-44.073
245.47	-38.440
245.84	-54.341
246.21	-48.609
246.58	-47.409
246.94	-43.615
247.31	-45.710
247.68	-51.254
248.05	-47.344
248.42	-50.816
248.79	-51.133
249.15	-55.051
249.52	-54.612
249.89	-47.420
250.26	-48.405
250.63	-53.408
251.00	-47.779
251.36	-54.387
251.73	-51.296
252.10	-43.413
252.47	-51.981
252.84	-47.459
253.20	-48.016
253.57	-45.696
253.94	-49.644
254.31	-53.215
254.68	-54.693
255.05	-57.558
255.41	-54.736
255.78	-45.095
256.15	-61.615
256.52	-53.109
256.88	-49.021
257.25	-56.895
257.62	-45.514
257.99	-51.306
258.36	-55.768
258.72	-46.810
259.09	-51.206
259.46	-49.448
259.83	-55.193
260.19	-45.589
260.56	-47.675
260.93	-62.888
261.30	-45.603
261.67	-54.605
262.03	-50.551
262.40	-47.563
262.77	-54.629
263.14	-54.914
263.50	-53.000
263.87	-53.074
264.24	-48.344
264.61	-50.082
264.97	-54.779
265.34	-52.775
265.71	-56.836
266.07	-48.965
266.44	-49.713
266.81	-49.469
267.18	-52.142
267.54	-47.446
267.91	-53.689
268.28	-54.460
268.64	-50.876
269.01	-54.333
269.38	-53.646
269.75	-55.463
270.11	-51.367
270.48	-49.128
270.85	-57.726
271.21	-53.277
271.58	-53.411
271.95	-50.082
272.32	-50.982
272.68	-57.931
273.05	-46.998
273.42	-50.453
273.78	-53.428
274.15	-62.240
274.52	-60.776
274.88	-57.432
275.25	-49.289
275.62	-64.163
275.98	-47.092
276.35	-46.055
276.72	-50.378
277.08	-55.973
277.45	-58.146
277.82	-58.802
278.18	-52.794
278.55	-59.133
278.92	-56.903
279.28	-52.551
279.65	-53.716
280.01	-52.720
280.38	-46.857
280.75	-60.088
281.11	-47.432
281.48	-44.264
281.85	-46.783
282.21	-57.006
282.58	-57.069
282.95	-53.070
283.31	-47.420
283.68	-47.812
284.04	-59.313
284.41	-59.301
284.78	-60.465
285.14	-56.095
285.51	-51.484
285.87	-50.000
286.24	-52.341
286.61	-46.467
286.97	-51.796
287.34	-59.637
287.70	-59.239
288.07	-50.367
288.44	-47.950
288.80	-52.840
289.17	-50.370
289.53	-52.677
289.90	-48.536
290.26	-45.847
290.63	-53.519
291.00	-54.841
291.36	-53.587
291.73	-57.321
292.09	-51.657
292.46	-54.291
292.82	-46.197
293.19	-55.109
293.56	-51.082
293.92	-55.158
294.29	-54.389
294.65	-60.180
295.02	-57.766
295.38	-61.809
295.75	-49.660
296.11	-48.720
296.48	-51.738
296.84	-54.615
297.21	-45.125
297.57	-54.689
297.94	-58.183
298.30	-49.148
298.67	-49.205
299.04	-54.315
299.40	-48.773
299.77	-46.314
300.13	-46.646
300.50	-53.589
300.86	-54.591
301.23	-51.837
301.59	-55.350
301.96	-46.118
302.32	-49.218
302.69	-58.559
303.05	-50.490
303.42	-44.165
303.78	-49.228
304.14	-50.675
304.51	-50.774
304.87	-47.969
305.24	-41.965
305.60	-52.760
305.97	-48.450
306.33	-51.253
306.70	-50.318
307.06	-44.033
307.43	-51.713
307.79	-45.525
308.16	-47.715
308.52	-46.224
308.88	-47.644
309.25	-45.283
309.61	-43.016
309.98	-47.100
310.34	-48.168
310.71	-42.070
311.07	-51.565
311.44	-39.841
311.80	-45.501
312.16	-43.267
312.53	-43.648
312.89	-39.340
313.26	-47.565
313.62	-43.321
313.98	-40.684
314.35	-41.066
314.71	-43.115
315.08	-40.603
315.44	-45.704
315.80	-39.463
316.17	-43.442
316.53	-37.424
316.90	-44.278
317.26	-38.998
317.62	-42.700
317.99	-41.017
318.35	-37.714
318.72	-47.003
319.08	-38.482
319.44	-43.147
319.81	-43.324
320.17	-33.479
320.53	-40.599
320.90	-33.417
321.26	-36.710
321.62	-38.122
321.99	-48.003
322.35	-33.762
322.72	-34.777
323.08	-33.890
323.44	-40.101
323.81	-41.558
324.17	-36.434
324.53	-34.220
324.90	-32.349
325.26	-33.253
325.62	-40.652
325.99	-34.527
326.35	-28.641
326.71	-33.485
327.08	-35.164
327.44	-31.895
327.80	-28.200
328.16	-26.992
328.53	-38.407
328.89	-34.692
329.25	-34.146
329.62	-25.968
329.98	-24.934
330.34	-28.168
330.71	-31.141
331.07	-30.306
331.43	-26.763
331.79	-24.814
332.16	-25.339
332.52	-28.715
332.88	-21.353
333.24	-27.475
333.61	-23.524
333.97	-24.201
334.33	-22.424
334.70	-24.669
335.06	-25.354
335.42	-22.902
335.78	-20.857
336.15	-21.849
336.51	-25.538
336.87	-24.264
337.23	-20.400
337.60	-21.216
337.96	-20.884
338.32	-21.204
338.68	-20.838
339.04	-19.665
339.41	-20.286
339.77	-20.097
340.13	-18.750
340.49	-18.746
340.86	-17.080
341.22	-16.854
341.58	-18.778
341.94	-18.890
342.30	-17.030
342.67	-18.461
343.03	-17.234
343.39	-16.318
343.75	-15.527
344.11	-13.834
344.48	-17.115
344.84	-17.126
345.20	-15.731
345.56	-14.968
345.92	-14.751
346.28	-15.120
346.65	-14.020
347.01	-14.723
347.37	-15.251
347.73	-14.110
348.09	-13.945
348.45	-13.064
348.82	-13.531
349.18	-12.454
349.54	-13.541
349.90	-12.606
350.26	-12.591
350.62	-13.930
350.98	-12.460
351.35	-13.117
351.71	-11.898
352.07	-11.046
352.43	-11.343
352.79	-11.057
353.15	-10.631
353.51	-10.911
353.87	-10.618
354.24	-9.820
354.60	-10.546
354.96	-10.945
355.32	-8.799
355.68	-8.978
356.04	-9.508
356.40	-10.073
356.76	-9.203
357.12	-8.662
357.48	-9.895
357.85	-9.013
358.21	-8.798
358.57	-8.969
358.93	-8.213
359.29	-9.085
359.65	-7.954
360.01	-8.316
360.37	-8.285
360.73	-8.328
361.09	-8.580
361.45	-8.726
361.81	-7.608
362.17	-7.023
362.53	-7.554
362.89	-7.134
363.25	-8.616
363.62	-6.642
363.98	-6.940
364.34	-7.596
364.70	-5.922
365.06	-7.013
365.42	-6.668
365.78	-6.728
366.14	-6.524
366.50	-6.933
366.86	-6.265
367.22	-6.987
367.58	-6.563
367.94	-5.882
368.30	-6.986
368.66	-5.283
369.02	-5.728
369.38	-4.842
369.74	-5.654
370.10	-4.859
370.46	-4.726
370.82	-5.576
371.18	-4.196
371.54	-4.775
371.90	-5.280
372.26	-5.451
372.62	-4.371
372.98	-4.114
373.33	-4.993
373.69	-5.483
374.05	-4.616
374.41	-4.692
374.77	-3.824
375.13	-4.578
375.49	-4.142
375.85	-4.937
376.21	-4.045
376.57	-4.180
376.93	-3.549
377.29	-3.587
377.65	-2.665
378.01	-4.172
378.37	-3.557
378.73	-3.132
379.08	-3.550
379.44	-2.970
379.80	-3.124
380.16	-2.627
380.52	-2.726
380.88	-3.162
381.24	-2.752
381.60	-3.028
381.96	-2.201
382.32	-2.497
382.67	-2.957
383.03	-1.983
383.39	-2.019
383.75	-1.853
384.11	-1.966
384.47	-2.128
384.83	-1.414
385.19	-1.490
385.54	-1.030
385.90	-1.710
386.26	-1.470
386.62	-1.024
386.98	-1.191
387.34	-0.571
387.70	-1.164
388.05	-0.632
388.41	-0.589
388.77	0.000
389.13	-0.234
389.49	-0.101
389.85	-0.087
390.20	0.147
390.56	0.213
390.92	0.066
391.28	0.345
391.64	0.505
391.99	0.339
392.35	0.906
392.71	0.628
393.07	1.202
393.43	1.362
393.78	1.089
394.14	1.245
394.50	1.441
394.86	1.655
395.22	1.350
395.57	1.602
395.93	1.886
396.29	1.991
396.65	2.085
397.00	2.418
397.36	2.610
397.72	2.645
398.08	3.012
398.43	2.671
398.79	2.751
399.15	3.264
399.51	3.070
399.86	3.496
400.22	3.494
400.58	3.269
400.94	3.502
401.29	3.934
401.65	4.033
402.01	3.857
402.37	4.181
402.72	4.096
403.08	4.453
403.44	4.458
403.79	4.555
404.15	4.415
404.51	4.881
404.86	4.882
405.22	5.019
405.58	5.202
405.94	5.255
406.29	5.501
406.65	5.489
407.01	5.623
407.36	5.712
407.72	5.917
408.08	6.036
408.43	6.013
408.79	6.335
409.15	6.515
409.50	6.552
409.86	6.368
410.22	6.457
410.57	6.884
410.93	7.106
411.29	7.014
411.64	7.514
412.00	7.607
412.35	7.740
412.71	7.513
413.07	7.953
413.42	7.893
413.78	8.044
414.14	7.996
414.49	7.990
414.85	8.184
415.20	8.451
415.56	8.461
415.92	8.616
416.27	8.943
416.63	8.924
416.98	9.071
417.34	9.152
417.70	9.242
418.05	9.249
418.41	9.539
418.76	9.679
419.12	9.531
419.47	9.690
419.83	9.926
420.19	10.221
420.54	10.118
420.90	10.326
421.25	10.515
421.61	10.590
421.96	10.696
422.32	10.725
422.67	11.015
423.03	11.014
423.39	11.209
423.74	11.576
424.10	11.626
424.45	11.593
424.81	11.761
425.16	11.799
425.52	11.903
425.87	12.040
426.23	12.125
426.58	12.098
426.94	12.263
427.29	12.330
427.65	12.617
428.00	12.618
428.36	12.602
428.71	12.888
429.07	13.001
429.42	13.075
429.78	13.194
430.13	13.385
430.49	13.387
430.84	13.570
431.19	13.510
431.55	13.780
431.90	13.756
432.26	13.808
432.61	13.981
432.97	14.215
433.32	14.286
433.68	14.322
434.03	14.322
434.39	14.456
434.74	14.582
435.09	14.788
435.45	14.891
435.80	14.789
436.16	15.002
436.51	15.256
436.86	15.140
437.22	15.279
437.57	15.478
437.93	15.650
438.28	15.752
438.63	15.665
438.99	15.869
439.34	15.923
439.70	16.129
440.05	16.198
440.40	16.275
440.76	16.336
441.11	16.314
441.47	16.437
441.82	16.500
442.17	16.645
442.53	16.687
442.88	16.796
443.23	17.077
443.59	17.083
443.94	17.092
444.29	17.245
444.65	17.472
445.00	17.271
445.35	17.420
445.71	17.512
446.06	17.676
446.41	17.765
446.77	17.860
447.12	17.853
447.47	18.034
447.83	18.045
448.18	18.230
448.53	18.282
448.89	18.257
449.24	18.514
449.59	18.404
449.94	18.701
450.30	18.720
450.65	18.844
451.00	18.840
451.36	19.047
451.71	19.199
452.06	19.225
452.41	19.221
452.77	19.226
453.12	19.414
453.47	19.715
453.82	19.676
454.18	19.734
454.53	19.840
454.88	19.839
455.23	19.961
455.59	19.994
455.94	20.072
456.29	20.287
456.64	20.306
457.00	20.339
457.35	20.440
457.70	20.506
458.05	20.667
458.40	20.734
458.76	20.939
459.11	20.856
459.46	21.172
459.81	21.104
460.16	21.142
460.52	21.343
460.87	21.404
461.22	21.504
461.57	21.646
461.92	21.636
462.28	21.792
462.63	21.836
462.98	22.048
463.33	22.091
463.68	22.113
464.03	22.275
464.38	22.227
464.74	22.380
465.09	22.391
465.44	22.479
465.79	22.618
466.14	22.766
466.49	22.708
466.84	22.897
467.20	22.978
467.55	22.959
467.90	23.034
468.25	23.327
468.60	23.092
468.95	23.305
469.30	23.302
469.65	23.351
470.00	23.469
470.36	23.546
470.71	23.600
471.06	23.644
471.41	23.729
471.76	23.739
472.11	23.821
472.46	23.916
472.81	23.771
473.16	23.993
473.51	24.099
473.86	23.972
474.21	24.022
474.56	24.135
474.91	24.204
475.26	24.149
475.62	24.210
475.97	24.288
476.32	24.254
476.67	24.229
477.02	24.267
477.37	24.397
477.72	24.353
478.07	24.292
478.42	24.383
478.77	24.364
479.12	24.378
479.47	24.447
479.82	24.360
480.17	24.462
480.52	24.384
480.87	24.490
481.22	24.526
481.57	24.504
481.92	24.523
482.27	24.435
482.62	24.540
482.97	24.516
483.32	24.523
483.67	24.561
484.02	24.607
484.36	24.545
484.71	24.574
485.06	24.646
485.41	24.667
485.76	24.738
486.11	24.757
486.46	24.795
486.81	24.836
487.16	24.840
487.51	24.831
487.86	24.956
488.21	24.984
488.56	25.064
488.91	25.071
489.25	25.166
489.60	25.209
489.95	25.317
490.30	25.350
490.65	25.387
491.00	25.571
491.35	25.492
491.70	25.567
492.05	25.698
492.39	25.802
492.74	25.765
493.09	25.906
493.44	25.977
493.79	26.082
494.14	26.093
494.49	26.205
494.83	26.271
495.18	26.408
495.53	26.468
495.88	26.410
496.23	26.597
496.58	26.631
496.92	26.738
497.27	26.876
497.62	26.819
497.97	26.976
498.32	27.027
498.67	27.059
499.01	27.192
499.36	27.222
499.71	27.331
500.06	27.358
500.41	27.490
500.75	27.483
501.10	27.506
501.45	27.604
501.80	27.672
502.14	27.776
502.49	27.827
502.84	27.862
503.19	27.928
503.53	27.929
503.88	28.044
504.23	28.022
504.58	28.092
504.92	28.100
505.27	28.246
505.62	28.285
505.97	28.307
506.31	28.240
506.66	28.371
507.01	28.366
507.36	28.347
507.70	28.426
508.05	28.387
508.40	28.364
508.74	28.367
509.09	28.324
509.44	28.323
509.79	28.359
510.13	28.268
510.48	28.296
510.83	28.244
511.17	28.190
511.52	28.216
511.87	28.160
512.21	28.166
512.56	28.234
512.91	28.214
513.25	28.233
513.60	28.208
513.95	28.318
514.29	28.300
514.64	28.389
514.98	28.402
515.33	28.434
515.68	28.436
516.02	28.514
516.37	28.548
516.72	28.632
517.06	28.640
517.41	28.669
517.75	28.631
518.10	28.759
518.45	28.695
518.79	28.730
519.14	28.837
519.48	28.758
519.83	28.739
520.18	28.734
520.52	28.831
520.87	28.848
521.21	28.884
521.56	28.860
521.90	28.897
522.25	28.810
522.60	28.806
522.94	28.894
523.29	28.941
523.63	28.782
523.98	28.789
524.32	28.797
524.67	28.834
525.01	28.750
525.36	28.736
525.70	28.719
526.05	28.639
526.39	28.619
526.74	28.622
527.08	28.463
527.43	28.512
527.77	28.468
528.12	28.337
528.46	28.316
528.81	28.202
529.15	28.173
529.50	28.085
529.84	27.981
530.19	27.891
530.53	27.738
530.88	27.656
531.22	27.623
531.57	27.493
531.91	27.366
532.26	27.187
532.60	27.068
532.94	26.914
533.29	26.802
533.63	26.596
533.98	26.463
534.32	26.328
534.67	26.154
535.01	25.951
535.35	25.778
535.70	25.562
536.04	25.429
536.39	25.149
536.73	24.963
537.07	24.767
537.42	24.576
537.76	24.379
538.11	24.140
538.45	24.010
538.79	23.753
539.14	23.549
539.48	23.426
539.82	23.175
540.17	22.960
540.51	22.830
540.85	22.713
541.20	22.539
541.54	22.352
541.89	22.233
542.23	22.074
542.57	21.935
542.92	21.872
543.26	21.835
543.60	21.661
543.94	21.612
544.29	21.547
544.63	21.422
544.97	21.426
545.32	21.393
545.66	21.317
546.00	21.367
546.35	21.360
546.69	21.364
547.03	21.310
547.37	21.342
547.72	21.383
548.06	21.380
548.40	21.433
548.75	21.439
549.09	21.495
549.43	21.589
549.77	21.633
550.12	21.688
550.46	21.777
550.80	21.817
551.14	22.012
551.49	22.055
551.83	22.142
552.17	22.300
552.51	22.379
552.85	22.608
553.20	22.705
553.54	22.892
553.88	22.989
554.22	23.242
554.56	23.402
554.91	23.602
555.25	23.800
555.59	23.942
555.93	24.171
556.27	24.408
556.62	24.615
556.96	24.903
557.30	25.109
557.64	25.276
557.98	25.519
558.32	25.755
558.67	25.965
559.01	26.235
559.35	26.421
559.69	26.641
560.03	26.832
560.37	27.164
560.71	27.363
561.05	27.549
561.40	27.707
561.74	27.873
562.08	28.116
562.42	28.285
562.76	28.553
563.10	28.678
563.44	28.898
563.78	28.997
564.12	29.163
564.46	29.356
564.81	29.424
565.15	29.615
565.49	29.715
565.83	29.806
566.17	29.895
566.51	29.947
566.85	30.055
567.19	30.173
567.53	30.244
567.87	30.284
568.21	30.268
568.55	30.323
568.89	30.349
569.23	30.405
569.57	30.414
569.91	30.367
570.25	30.412
570.59	30.408
570.93	30.397
571.27	30.384
571.61	30.332
571.95	30.298
572.29	30.225
572.63	30.170
572.97	30.142
573.31	30.100
573.65	29.972
573.99	29.953
574.33	29.837
574.67	29.735
575.01	29.586
575.35	29.487
575.69	29.426
576.03	29.316
576.37	29.254
576.71	29.063
577.05	28.939
577.39	28.817
577.73	28.667
578.06	28.523
578.40	28.386
578.74	28.233
579.08	27.973
579.42	27.917
579.76	27.705
580.10	27.484
580.44	27.392
580.78	27.197
581.12	27.014
581.45	26.824
581.79	26.609
582.13	26.451
582.47	26.280
582.81	26.103
583.15	25.885
583.49	25.787
583.83	25.625
584.16	25.421
584.50	25.304
584.84	25.121
585.18	25.037
585.52	24.912
585.86	24.767
586.19	24.602
586.53	24.468
586.87	24.336
587.21	24.171
587.55	24.078
587.88	23.906
588.22	23.755
588.56	23.611
588.90	23.449
589.24	23.277
589.57	23.023
589.91	22.886
590.25	22.634
590.59	22.464
590.92	22.272
591.26	22.070
591.60	21.820
591.94	21.598
592.27	21.432
592.61	21.151
592.95	20.910
593.29	20.649
593.62	20.408
593.96	20.140
594.30	19.846
594.64	19.605
594.97	19.255
595.31	18.935
595.65	18.614
595.98	18.191
596.32	17.826
596.66	17.441
597.00	17.053
597.33	16.673
597.67	16.230
598.01	15.802
598.34	15.365
598.68	15.051
599.02	14.572
599.35	14.168
599.69	13.865
600.03	13.494
600.36	13.119
600.70	12.827
601.03	12.505
601.37	12.216
601.71	11.938
602.04	11.727
602.38	11.433
602.72	11.180
603.05	10.913
603.39	10.703
603.72	10.449
604.06	10.229
604.40	10.000
604.73	9.729
605.07	9.499
605.40	9.230
605.74	8.994
606.08	8.727
606.41	8.523
606.75	8.248
607.08	7.984
607.42	7.735
607.75	7.490
608.09	7.221
608.42	6.973
608.76	6.730
609.10	6.470
609.43	6.263
609.77	6.018
610.10	5.738
610.44	5.518
610.77	5.279
611.11	5.087
611.44	4.866
611.78	4.637
612.11	4.414
612.45	4.224
612.78	4.015
613.12	3.842
613.45	3.661
613.79	3.439
614.12	3.304
614.46	3.098
614.79	2.983
615.13	2.793
615.46	2.688
615.79	2.547
616.13	2.451
616.46	2.338
616.80	2.205
617.13	2.094
617.47	2.040
617.80	1.967
618.13	1.893
618.47	1.786
618.80	1.712
619.14	1.665
619.47	1.594
619.81	1.552
620.14	1.500
620.47	1.434
620.81	1.385
621.14	1.335
621.47	1.314
621.81	1.249
622.14	1.216
622.48	1.168
622.81	1.104
623.14	1.128
623.48	1.088
623.81	1.045
624.14	0.999
624.48	0.991
624.81	0.996
625.14	0.958
625.48	0.949
625.81	0.923
626.14	0.929
626.48	0.926
626.81	0.909
627.14	0.936
627.48	0.939
627.81	0.940
628.14	0.944
628.47	0.967
628.81	0.999
629.14	1.024
629.47	1.039
629.81	1.082
630.14	1.103
630.47	1.136
630.80	1.222
631.14	1.253
631.47	1.281
631.80	1.372
632.13	1.417
632.47	1.524
632.80	1.608
633.13	1.707
633.46	1.777
633.79	1.938
634.13	2.017
634.46	2.119
634.79	2.285
635.12	2.392
635.45	2.547
635.79	2.710
636.12	2.873
636.45	3.021
636.78	3.205
637.11	3.392
637.45	3.617
637.78	3.778
638.11	3.972
638.44	4.221
638.77	4.437
639.10	4.653
639.44	4.910
639.77	5.117
640.10	5.397
640.43	5.605
640.76	5.826
641.09	6.096
641.42	6.324
641.75	6.609
642.08	6.840
642.42	7.073
642.75	7.342
643.08	7.574
643.41	7.830
643.74	8.036
644.07	8.269
644.40	8.496
644.73	8.763
645.06	8.967
645.39	9.179
645.72	9.443
646.05	9.625
646.38	9.790
646.72	10.032
647.05	10.211
647.38	10.377
647.71	10.559
648.04	10.714
648.37	10.840
648.70	10.976
649.03	11.125
649.36	11.217
649.69	11.352
650.02	11.390
650.35	11.498
650.68	11.549
651.01	11.552
651.34	11.576
651.67	11.569
652.00	11.536
652.33	11.486
652.66	11.427
652.99	11.305
653.31	11.208
653.64	11.062
653.97	10.922
654.30	10.759
654.63	10.567
654.96	10.341
655.29	10.094
655.62	9.849
655.95	9.645
656.28	9.344
656.61	9.107
656.94	8.852
657.27	8.555
657.60	8.321
657.92	8.071
658.25	7.828
658.58	7.596
658.91	7.383
659.24	7.174
659.57	6.998
659.90	6.775
660.23	6.609
660.55	6.388
660.88	6.228
661.21	6.047
661.54	5.882
661.87	5.674
662.20	5.567
662.52	5.379
662.85	5.227
663.18	5.116
663.51	4.966
663.84	4.799
664.16	4.667
664.49	4.538
664.82	4.380
665.15	4.283
665.48	4.171
665.80	4.066
666.13	3.963
666.46	3.835
666.79	3.751
667.12	3.641
667.44	3.547
667.77	3.495
668.10	3.400
668.43	3.311
668.75	3.234
669.08	3.161
669.41	3.092
669.73	3.017
670.06	2.982
670.39	2.884
670.72	2.833
671.04	2.796
671.37	2.717
671.70	2.715
672.02	2.671
672.35	2.606
672.68	2.602
673.00	2.543
673.33	2.519
673.66	2.467
673.98	2.467
674.31	2.411
674.64	2.409
674.96	2.386
675.29	2.374
675.62	2.340
675.94	2.334
676.27	2.316
676.60	2.307
676.92	2.285
677.25	2.273
677.58	2.259
677.90	2.262
678.23	2.278
678.55	2.274
678.88	2.218
679.21	2.218
679.53	2.237
679.86	2.216
680.18	2.208
680.51	2.181
680.83	2.141
681.16	2.147
681.49	2.114
681.81	2.079
682.14	2.083
682.46	2.049
682.79	2.048
683.11	2.020
683.44	1.985
683.76	1.967
684.09	1.962
684.41	1.953
684.74	1.926
685.06	1.906
685.39	1.909
685.71	1.912
686.04	1.878
686.36	1.853
686.69	1.874
687.01	1.862
687.34	1.860
687.66	1.825
687.99	1.793
688.31	1.792
688.64	1.769
688.96	1.717
689.29	1.692
689.61	1.703
689.93	1.651
690.26	1.623
690.58	1.601
690.91	1.595
691.23	1.518
691.56	1.485
691.88	1.506
692.20	1.439
692.53	1.380
692.85	1.369
693.18	1.313
693.50	1.257
693.82	1.216
694.15	1.175
694.47	1.107
694.79	1.051
695.12	0.994
695.44	0.970
695.76	0.894
696.09	0.828
696.41	0.790
696.73	0.717
697.06	0.722
697.38	0.643
697.70	0.579
698.03	0.532
698.35	0.483
698.67	0.426
699.00	0.376
699.32	0.348
699.64	0.276
699.97	0.245
700.29	0.183
700.61	0.174
700.93	0.155
701.26	0.123
701.58	0.070
701.90	0.039
702.22	0.053
702.55	-0.019
702.87	-0.044
703.19	-0.031
703.51	-0.053
703.84	-0.097
704.16	-0.098
704.48	-0.133
704.80	-0.165
705.13	-0.155
705.45	-0.173
705.77	-0.160
706.09	-0.165
706.41	-0.193
706.74	-0.197
707.06	-0.196
707.38	-0.199
707.70	-0.202
708.02	-0.231
708.34	-0.198
708.67	-0.238
708.99	-0.258
709.31	-0.279
709.63	-0.229
709.95	-0.263
710.27	-0.278
710.59	-0.281
710.92	-0.273
711.24	-0.291
711.56	-0.270
711.88	-0.270
712.20	-0.293
712.52	-0.288
712.84	-0.294
713.16	-0.311
713.48	-0.300
713.80	-0.332
714.12	-0.324
714.45	-0.331
714.77	-0.344
715.09	-0.333
715.41	-0.320
715.73	-0.312
716.05	-0.368
716.37	-0.314
716.69	-0.349
717.01	-0.359
717.33	-0.357
717.65	-0.385
717.97	-0.358
718.29	-0.410
718.61	-0.398
718.93	-0.375
719.25	-0.398
719.57	-0.375
719.89	-0.425
720.21	-0.404
720.53	-0.410
720.85	-0.444
721.17	-0.425
721.49	-0.466
721.81	-0.437
722.13	-0.472
722.45	-0.535
722.77	-0.493
723.09	-0.456
723.41	-0.544
723.72	-0.543
724.04	-0.577
724.36	-0.513
724.68	-0.508
725.00	-0.516
725.32	-0.575
725.64	-0.514
725.96	-0.605
726.28	-0.616
726.60	-0.646
726.91	-0.567
727.23	-0.681
727.55	-0.632
727.87	-0.606
728.19	-0.623
728.51	-0.610
728.83	-0.581
729.14	-0.631
729.46	-0.669
729.78	-0.676
730.10	-0.690
730.42	-0.721
730.74	-0.756
731.05	-0.794
731.37	-0.703
731.69	-0.827
732.01	-0.763
732.33	-0.769
732.64	-0.718
732.96	-0.735
733.28	-0.741
733.60	-0.836
733.92	-0.824
734.23	-0.842
734.55	-0.894
734.87	-0.778
735.19	-0.760
735.50	-0.700
735.82	-0.848
736.14	-0.770
736.45	-0.772
736.77	-0.712
737.09	-0.795
737.41	-0.778
737.72	-0.834
738.04	-0.811
738.36	-0.778
738.67	-0.773
738.99	-0.819
739.31	-0.760
739.63	-0.781
739.94	-0.711
740.26	-0.712
740.58	-0.730
740.89	-0.741
741.21	-0.771
741.52	-0.702
741.84	-0.759
742.16	-0.746
742.47	-0.725
742.79	-0.730
743.11	-0.769
743.42	-0.756
743.74	-0.642
744.05	-0.669
744.37	-0.668
744.69	-0.760
745.00	-0.693
745.32	-0.690
745.63	-0.741
745.95	-0.659
746.27	-0.684
746.58	-0.719
746.90	-0.651
747.21	-0.679
747.53	-0.674
747.84	-0.660
748.16	-0.700
748.47	-0.746
748.79	-0.613
749.10	-0.724
749.42	-0.656
749.74	-0.620
750.05	-0.657
750.37	-0.672
750.68	-0.674
751.00	-0.678
751.31	-0.657
751.62	-0.710
751.94	-0.648
752.25	-0.652
752.57	-0.592
752.88	-0.547
753.20	-0.602
753.51	-0.579
753.83	-0.550
754.14	-0.581
754.46	-0.585
754.77	-0.564
755.08	-0.580
755.40	-0.595
755.71	-0.571
756.03	-0.575
756.34	-0.559
756.66	-0.581
756.97	-0.628
757.28	-0.547
757.60	-0.526
757.91	-0.596
758.22	-0.596
758.54	-0.570
758.85	-0.554
759.17	-0.520
759.48	-0.542
759.79	-0.542
760.11	-0.536
760.42	-0.570
760.73	-0.567
761.05	-0.548
761.36	-0.552
761.67	-0.551
761.99	-0.535
762.30	-0.523
762.61	-0.576
762.92	-0.554
763.24	-0.513
763.55	-0.507
763.86	-0.477
764.18	-0.565
764.49	-0.483
764.80	-0.477
765.11	-0.513
765.43	-0.517
765.74	-0.535
766.05	-0.542
766.36	-0.522
766.68	-0.461
766.99	-0.485
767.30	-0.526
767.61	-0.542
767.93	-0.537
768.24	-0.493
768.55	-0.524
768.86	-0.451
769.17	-0.535
769.49	-0.539
769.80	-0.503
770.11	-0.509
770.42	-0.504
770.73	-0.571
771.04	-0.502
771.36	-0.516
771.67	-0.498
771.98	-0.538
772.29	-0.511
772.60	-0.544
772.91	-0.544
773.22	-0.574
773.54	-0.563
773.85	-0.522
774.16	-0.528
774.47	-0.550
774.78	-0.493
775.09	-0.647
775.40	-0.498
775.71	-0.566
776.02	-0.554
776.33	-0.579
776.64	-0.537
776.96	-0.528
777.27	-0.572
777.58	-0.537
777.89	-0.536
778.20	-0.550
778.51	-0.565
778.82	-0.588
779.13	-0.589
779.44	-0.552
779.75	-0.574
780.06	-0.539
780.37	-0.626
780.68	-0.606
780.99	-0.617
781.30	-0.606
781.61	-0.574
781.92	-0.638
782.23	-0.631
782.54	-0.684
782.85	-0.623
783.16	-0.601
783.47	-0.618
783.78	-0.705
784.08	-0.649
784.39	-0.667
784.70	-0.607
785.01	-0.699
785.32	-0.620
785.63	-0.658
785.94	-0.665
786.25	-0.692
786.56	-0.667
786.87	-0.751
787.18	-0.705
787.48	-0.664
787.79	-0.723
788.10	-0.723
788.41	-0.751
788.72	-0.743
789.03	-0.708
789.34	-0.821
789.64	-0.745
789.95	-0.814
790.26	-0.850
790.57	-0.780
790.88	-0.796
791.19	-0.820
791.49	-0.834
791.80	-0.789
792.11	-0.797
792.42	-0.927
792.73	-0.808
793.03	-0.890
793.34	-0.850
793.65	-0.867
793.96	-0.902
794.27	-0.881
794.57	-0.926
794.88	-0.965
795.19	-0.892
795.50	-1.067
795.80	-0.971
796.11	-0.959
796.42	-1.050
796.72	-1.013
797.03	-1.001
797.34	-0.976
797.65	-0.957
797.95	-1.012
798.26	-1.118
798.57	-0.959
798.87	-0.993
799.18	-1.065
799.49	-1.137
799.79	-1.125
800.10	-1.212
800.41	-1.097
800.71	-1.230
801.02	-1.113
801.33	-1.177
801.63	-1.135
801.94	-1.083
802.24	-1.208
802.55	-1.321
802.86	-1.284
803.16	-1.064
803.47	-1.231
803.77	-1.278
804.08	-1.365
804.39	-1.276
804.69	-1.176
805.00	-1.387
805.30	-1.290
805.61	-1.324
805.91	-1.428
806.22	-1.299
806.53	-1.343
806.83	-1.367
807.14	-1.449
807.44	-1.324
807.75	-1.356
808.05	-1.327
808.36	-1.448
808.66	-1.468
808.97	-1.547
809.27	-1.481
809.58	-1.693
809.88	-1.433
810.19	-1.483
810.49	-1.574
810.80	-1.548
811.10	-1.560
811.41	-1.679
811.71	-1.688
812.01	-1.601
812.32	-1.747
812.62	-1.602
812.93	-1.655
813.23	-1.658
813.54	-1.816
813.84	-1.631
814.14	-1.795
814.45	-1.702
814.75	-1.857
815.06	-1.812
815.36	-1.859
815.66	-1.862
815.97	-2.055
816.27	-1.949
816.58	-1.724
816.88	-1.824
817.18	-2.040
817.49	-1.931
817.79	-1.939
818.09	-1.963
818.40	-2.226
818.70	-2.180
819.00	-2.152
819.31	-2.273
819.61	-2.247
819.91	-2.260
820.21	-2.381
820.52	-2.363
820.82	-2.490
821.12	-2.318
821.43	-2.343
821.73	-2.744
822.03	-2.478
822.33	-2.695
822.64	-2.771
822.94	-2.664
823.24	-2.764
823.54	-2.631
823.85	-2.828
824.15	-2.502
824.45	-2.832
824.75	-2.799
825.05	-2.791
825.36	-3.037
825.66	-2.942
825.96	-3.035
826.26	-2.901
826.56	-2.956
826.87	-2.749
827.17	-2.780
827.47	-3.551
827.77	-3.373
828.07	-3.172
828.37	-3.343
828.67	-3.421
828.98	-3.669
829.28	-3.200
829.58	-3.203
829.88	-3.688
830.18	-3.293
830.48	-3.866
830.78	-3.709
831.08	-3.863
831.38	-3.974
831.69	-4.323
831.99	-3.915
832.29	-4.720
832.59	-3.997
832.89	-4.793
833.19	-4.312
833.49	-4.560
833.79	-4.399
834.09	-5.176
834.39	-4.703
834.69	-4.966
834.99	-5.333
835.29	-4.702
835.59	-5.441
835.89	-5.788
836.19	-5.662
836.49	-5.756
836.79	-6.247
837.09	-5.761
837.39	-6.092
837.69	-6.361
837.99	-5.949
838.29	-6.852
838.59	-6.734
838.89	-6.757
839.19	-6.801
839.49	-7.023
839.79	-7.321
840.09	-7.750
840.39	-8.269
840.68	-7.380
840.98	-8.332
841.28	-8.411
841.58	-8.388
841.88	-8.616
842.18	-9.157
842.48	-8.718
842.78	-8.933
843.08	-9.832
843.37	-10.380
843.67	-9.217
843.97	-10.045
844.27	-10.917
844.57	-10.343
844.87	-10.182
845.16	-11.269
845.46	-11.293
845.76	-12.649
846.06	-12.333
846.36	-10.941
846.66	-12.972
846.95	-12.715
847.25	-12.373
847.55	-12.900
847.85	-13.471
848.14	-13.422
848.44	-12.967
848.74	-15.529
849.04	-15.659
849.33	-14.783
849.63	-15.700
849.93	-17.535
850.23	-16.116
850.52	-18.072
850.82	-16.093
851.12	-17.442
851.42	-17.653
851.71	-17.243
852.01	-19.447
852.31	-17.461
852.60	-18.654
852.90	-18.926
853.20	-19.478
853.49	-20.173
853.79	-19.350
854.09	-21.647
854.38	-23.145
854.68	-20.223
854.98	-23.916
855.27	-22.786
855.57	-22.404
855.86	-25.616
856.16	-22.914
856.46	-23.131
856.75	-25.146
857.05	-26.387
857.34	-25.248
857.64	-25.027
857.94	-26.540
858.23	-25.405
858.53	-27.735
858.82	-25.310
859.12	-26.964
859.41	-25.308
859.71	-26.667
860.01	-23.661
860.30	-27.031
860.60	-25.956
860.89	-26.151
861.19	-26.905
861.48	-25.074
861.78	-27.303
862.07	-27.679
862.37	-26.134
862.66	-26.456
862.96	-27.211
863.25	-26.548
863.55	-30.341
863.84	-28.234
864.13	-25.549
864.43	-28.116
864.72	-28.851
865.02	-27.373
865.31	-29.478
865.61	-25.373
865.90	-25.466
866.19	-28.225
866.49	-27.009
866.78	-25.944
867.08	-30.867
867.37	-26.302
867.66	-26.357
867.96	-27.606
868.25	-27.470
868.55	-26.529
868.84	-27.396
869.13	-27.515
869.43	-25.967
869.72	-28.266
870.01	-25.104
870.31	-26.391
870.60	-27.356
870.89	-27.914
871.19	-26.799
871.48	-29.939
871.77	-30.657
872.07	-26.376
872.36	-27.206
872.65	-28.150
872.94	-28.566
873.24	-25.748
873.53	-26.914
873.82	-25.808
874.11	-29.028
874.41	-28.278
874.70	-25.455
>>>>>End Processed Spectral Data<<<<<
