SpectraSuite Data File
++++++++++++++++++++++++++++++++++++
Date: Mon Apr 20 20:44:29 BST 2015
User: mpfc3
Dark Spectrum Present: Yes
Reference Spectrum Present: Yes
Number of Sampled Component Spectra: 1
Spectrometers: USB2E3636
Integration Time (usec): 30000 (USB2E3636)
Spectra Averaged: 100 (USB2E3636)
Boxcar Smoothing: 0 (USB2E3636)
Correct for Electrical Dark: No (USB2E3636)
Strobe/Lamp Enabled: No (USB2E3636)
Correct for Detector Non-linearity: No (USB2E3636)
Correct for Stray Light: No (USB2E3636)
Number of Pixels in Processed Spectrum: 2048
>>>>>Begin Processed Spectral Data<<<<<
180.28	0.000
180.65	237.582
181.02	219.423
181.39	225.755
181.77	251.121
182.14	237.691
182.51	245.190
182.88	253.319
183.25	251.322
183.63	230.550
184.00	223.256
184.37	233.333
184.74	235.271
185.11	244.419
185.49	250.930
185.86	211.173
186.23	244.181
186.60	245.011
186.97	246.560
187.35	239.783
187.72	260.641
188.09	220.000
188.46	241.423
188.83	224.506
189.20	-2516.279
189.58	-62.814
189.95	-60.183
190.32	-64.633
190.69	-58.355
191.06	-61.960
191.43	-67.947
191.81	-59.332
192.18	-63.564
192.55	-62.458
192.92	-57.257
193.29	-62.159
193.66	-59.987
194.03	-60.618
194.41	-64.832
194.78	-67.566
195.15	-62.602
195.52	-59.881
195.89	-62.816
196.26	-60.354
196.63	-65.869
197.01	-65.014
197.38	-66.365
197.75	-57.554
198.12	-59.708
198.49	-62.943
198.86	-57.272
199.23	-64.799
199.60	-61.691
199.98	-67.815
200.35	-58.449
200.72	-62.255
201.09	-70.567
201.46	-66.247
201.83	-69.209
202.20	-60.445
202.57	-67.972
202.94	-68.676
203.31	-61.295
203.69	-60.380
204.06	-58.731
204.43	-64.545
204.80	-67.034
205.17	-71.126
205.54	-64.897
205.91	-63.681
206.28	-68.326
206.65	-71.022
207.02	-69.745
207.39	-67.304
207.76	-64.306
208.14	-65.912
208.51	-61.371
208.88	-62.748
209.25	-63.794
209.62	-69.986
209.99	-68.429
210.36	-66.618
210.73	-72.086
211.10	-75.441
211.47	-65.412
211.84	-62.921
212.21	-67.948
212.58	-69.733
212.95	-71.840
213.32	-69.461
213.69	-67.044
214.06	-67.962
214.43	-64.286
214.80	-75.253
215.17	-71.108
215.55	-72.053
215.92	-72.012
216.29	-67.831
216.66	-68.409
217.03	-77.708
217.40	-70.007
217.77	-67.111
218.14	-72.804
218.51	-74.961
218.88	-77.197
219.25	-64.058
219.62	-74.900
219.99	-71.962
220.36	-75.655
220.73	-74.799
221.10	-69.595
221.47	-78.504
221.84	-86.344
222.21	-85.601
222.58	-84.304
222.95	-80.426
223.32	-79.381
223.69	-77.920
224.06	-73.460
224.43	-73.948
224.80	-78.024
225.17	-91.361
225.54	-76.594
225.91	-75.646
226.27	-65.717
226.64	-81.218
227.01	-74.836
227.38	-89.264
227.75	-82.929
228.12	-79.898
228.49	-79.727
228.86	-88.732
229.23	-89.722
229.60	-84.356
229.97	-85.240
230.34	-80.390
230.71	-83.051
231.08	-84.173
231.45	-82.435
231.82	-76.652
232.19	-92.196
232.56	-88.792
232.93	-93.071
233.30	-88.503
233.66	-87.291
234.03	-82.524
234.40	-81.778
234.77	-79.044
235.14	-86.885
235.51	-92.493
235.88	-97.025
236.25	-90.808
236.62	-81.475
236.99	-84.779
237.36	-87.375
237.73	-93.410
238.09	-88.102
238.46	-87.731
238.83	-86.933
239.20	-93.906
239.57	-82.878
239.94	-91.352
240.31	-80.329
240.68	-79.323
241.05	-98.491
241.41	-88.208
241.78	-96.432
242.15	-92.959
242.52	-94.872
242.89	-107.361
243.26	-92.322
243.63	-84.196
244.00	-104.390
244.36	-81.625
244.73	-94.579
245.10	-93.253
245.47	-79.640
245.84	-91.829
246.21	-98.008
246.58	-93.149
246.94	-92.445
247.31	-97.784
247.68	-97.020
248.05	-90.352
248.42	-99.586
248.79	-101.148
249.15	-103.480
249.52	-101.043
249.89	-106.328
250.26	-95.500
250.63	-101.377
251.00	-102.671
251.36	-96.590
251.73	-100.303
252.10	-100.539
252.47	-105.163
252.84	-95.080
253.20	-98.055
253.57	-99.483
253.94	-105.316
254.31	-95.683
254.68	-97.677
255.05	-106.365
255.41	-92.292
255.78	-103.463
256.15	-95.525
256.52	-97.018
256.88	-102.979
257.25	-113.610
257.62	-97.405
257.99	-92.658
258.36	-107.348
258.72	-113.682
259.09	-109.613
259.46	-128.072
259.83	-109.823
260.19	-90.752
260.56	-118.363
260.93	-108.720
261.30	-101.963
261.67	-123.720
262.03	-104.957
262.40	-101.724
262.77	-108.744
263.14	-115.789
263.50	-105.066
263.87	-114.489
264.24	-107.309
264.61	-110.150
264.97	-101.684
265.34	-106.881
265.71	-108.066
266.07	-95.974
266.44	-116.210
266.81	-114.451
267.18	-107.199
267.54	-110.598
267.91	-110.100
268.28	-112.321
268.64	-106.645
269.01	-97.149
269.38	-121.084
269.75	-113.186
270.11	-131.586
270.48	-121.002
270.85	-91.405
271.21	-111.565
271.58	-113.750
271.95	-104.274
272.32	-105.469
272.68	-108.788
273.05	-122.765
273.42	-113.024
273.78	-108.462
274.15	-119.810
274.52	-106.808
274.88	-113.013
275.25	-107.987
275.62	-96.508
275.98	-109.934
276.35	-102.634
276.72	-95.371
277.08	-116.454
277.45	-104.444
277.82	-112.107
278.18	-98.677
278.55	-108.591
278.92	-107.629
279.28	-94.369
279.65	-106.652
280.01	-115.744
280.38	-107.320
280.75	-112.309
281.11	-115.566
281.48	-105.916
281.85	-117.067
282.21	-121.524
282.58	-109.007
282.95	-115.276
283.31	-110.776
283.68	-116.322
284.04	-89.669
284.41	-116.156
284.78	-113.098
285.14	-107.348
285.51	-103.947
285.87	-109.729
286.24	-107.879
286.61	-123.105
286.97	-104.772
287.34	-112.024
287.70	-113.984
288.07	-97.556
288.44	-105.369
288.80	-110.508
289.17	-106.689
289.53	-103.595
289.90	-111.250
290.26	-116.287
290.63	-94.861
291.00	-123.636
291.36	-100.421
291.73	-97.303
292.09	-107.387
292.46	-106.473
292.82	-107.812
293.19	-105.741
293.56	-110.928
293.92	-103.982
294.29	-115.041
294.65	-112.153
295.02	-109.966
295.38	-122.912
295.75	-96.471
296.11	-100.770
296.48	-98.818
296.84	-109.644
297.21	-116.549
297.57	-111.369
297.94	-117.314
298.30	-107.942
298.67	-106.243
299.04	-119.412
299.40	-104.818
299.77	-106.580
300.13	-108.486
300.50	-93.340
300.86	-108.764
301.23	-101.719
301.59	-94.551
301.96	-129.151
302.32	-111.086
302.69	-105.408
303.05	-92.347
303.42	-95.143
303.78	-97.037
304.14	-94.283
304.51	-96.042
304.87	-111.494
305.24	-87.011
305.60	-92.108
305.97	-84.356
306.33	-93.942
306.70	-92.505
307.06	-85.917
307.43	-89.510
307.79	-101.342
308.16	-85.826
308.52	-98.146
308.88	-111.384
309.25	-89.561
309.61	-87.488
309.98	-102.860
310.34	-96.121
310.71	-92.232
311.07	-93.948
311.44	-100.206
311.80	-81.792
312.16	-94.313
312.53	-90.927
312.89	-94.854
313.26	-90.228
313.62	-91.650
313.98	-83.242
314.35	-88.357
314.71	-89.575
315.08	-93.672
315.44	-91.388
315.80	-92.488
316.17	-85.831
316.53	-77.693
316.90	-75.952
317.26	-91.935
317.62	-78.349
317.99	-77.589
318.35	-78.041
318.72	-73.388
319.08	-75.660
319.44	-88.235
319.81	-70.008
320.17	-75.987
320.53	-78.943
320.90	-68.807
321.26	-71.542
321.62	-69.531
321.99	-71.707
322.35	-66.123
322.72	-66.566
323.08	-73.187
323.44	-70.307
323.81	-70.473
324.17	-70.992
324.53	-67.273
324.90	-70.619
325.26	-65.911
325.62	-66.524
325.99	-75.410
326.35	-63.853
326.71	-63.288
327.08	-55.296
327.44	-63.775
327.80	-58.713
328.16	-59.744
328.53	-61.286
328.89	-63.925
329.25	-66.483
329.62	-49.399
329.98	-47.904
330.34	-54.202
330.71	-51.998
331.07	-54.908
331.43	-47.856
331.79	-43.980
332.16	-49.483
332.52	-47.441
332.88	-48.714
333.24	-50.670
333.61	-48.023
333.97	-47.539
334.33	-47.214
334.70	-42.321
335.06	-43.723
335.42	-44.642
335.78	-40.850
336.15	-39.029
336.51	-40.705
336.87	-43.171
337.23	-42.387
337.60	-39.714
337.96	-39.332
338.32	-38.294
338.68	-36.535
339.04	-34.615
339.41	-36.239
339.77	-32.642
340.13	-35.611
340.49	-34.927
340.86	-34.358
341.22	-32.045
341.58	-32.823
341.94	-32.596
342.30	-32.739
342.67	-34.475
343.03	-31.807
343.39	-30.265
343.75	-30.384
344.11	-28.397
344.48	-29.108
344.84	-28.510
345.20	-27.994
345.56	-28.806
345.92	-28.190
346.28	-27.988
346.65	-26.618
347.01	-28.233
347.37	-24.481
347.73	-25.354
348.09	-26.112
348.45	-23.526
348.82	-23.857
349.18	-25.096
349.54	-24.403
349.90	-23.103
350.26	-24.145
350.62	-23.480
350.98	-21.358
351.35	-20.122
351.71	-22.341
352.07	-19.829
352.43	-22.005
352.79	-17.947
353.15	-20.775
353.51	-18.438
353.87	-21.763
354.24	-18.842
354.60	-19.138
354.96	-18.492
355.32	-18.192
355.68	-18.975
356.04	-18.134
356.40	-18.694
356.76	-18.879
357.12	-17.516
357.48	-16.480
357.85	-17.114
358.21	-15.921
358.57	-15.669
358.93	-16.594
359.29	-16.103
359.65	-14.549
360.01	-14.024
360.37	-14.980
360.73	-14.798
361.09	-14.044
361.45	-14.632
361.81	-14.673
362.17	-13.722
362.53	-13.048
362.89	-13.004
363.25	-12.728
363.62	-12.286
363.98	-13.690
364.34	-14.350
364.70	-11.331
365.06	-12.675
365.42	-12.682
365.78	-11.296
366.14	-11.532
366.50	-11.627
366.86	-11.574
367.22	-11.060
367.58	-10.901
367.94	-10.607
368.30	-10.780
368.66	-10.329
369.02	-9.200
369.38	-10.423
369.74	-9.986
370.10	-9.835
370.46	-9.733
370.82	-9.895
371.18	-9.958
371.54	-8.919
371.90	-9.379
372.26	-9.696
372.62	-8.761
372.98	-8.720
373.33	-8.522
373.69	-7.752
374.05	-8.552
374.41	-8.752
374.77	-7.643
375.13	-8.221
375.49	-7.391
375.85	-6.976
376.21	-7.363
376.57	-7.783
376.93	-7.313
377.29	-6.289
377.65	-6.822
378.01	-7.012
378.37	-6.390
378.73	-6.012
379.08	-6.289
379.44	-6.410
379.80	-6.661
380.16	-6.291
380.52	-6.043
380.88	-5.239
381.24	-5.550
381.60	-5.616
381.96	-5.012
382.32	-4.998
382.67	-5.045
383.03	-4.827
383.39	-4.534
383.75	-4.725
384.11	-3.525
384.47	-4.418
384.83	-3.939
385.19	-3.921
385.54	-3.570
385.90	-3.648
386.26	-3.600
386.62	-3.397
386.98	-2.847
387.34	-2.774
387.70	-3.347
388.05	-3.356
388.41	-2.728
388.77	-2.291
389.13	-2.307
389.49	-2.046
389.85	-1.848
390.20	-1.567
390.56	-1.800
390.92	-1.704
391.28	-1.138
391.64	-1.155
391.99	-1.055
392.35	-0.727
392.71	-0.576
393.07	-0.619
393.43	-0.735
393.78	-0.024
394.14	-0.053
394.50	0.047
394.86	0.678
395.22	0.493
395.57	0.521
395.93	0.842
396.29	1.153
396.65	1.085
397.00	1.089
397.36	1.331
397.72	1.447
398.08	1.799
398.43	1.753
398.79	2.005
399.15	2.741
399.51	2.341
399.86	2.569
400.22	2.343
400.58	2.543
400.94	2.723
401.29	3.502
401.65	3.136
402.01	3.558
402.37	3.551
402.72	3.456
403.08	4.084
403.44	3.804
403.79	4.528
404.15	4.236
404.51	4.250
404.86	4.518
405.22	4.614
405.58	4.682
405.94	4.759
406.29	5.047
406.65	5.511
407.01	5.274
407.36	5.702
407.72	6.102
408.08	5.794
408.43	5.765
408.79	6.145
409.15	6.224
409.50	6.633
409.86	6.776
410.22	6.711
410.57	6.846
410.93	7.174
411.29	7.310
411.64	7.032
412.00	7.605
412.35	7.791
412.71	7.588
413.07	8.205
413.42	7.991
413.78	8.188
414.14	8.326
414.49	8.442
414.85	8.724
415.20	8.606
415.56	8.921
415.92	9.084
416.27	9.291
416.63	9.435
416.98	9.567
417.34	9.708
417.70	9.848
418.05	10.049
418.41	9.854
418.76	10.286
419.12	10.539
419.47	10.602
419.83	10.374
420.19	10.675
420.54	10.967
420.90	10.919
421.25	11.069
421.61	11.330
421.96	10.998
422.32	11.763
422.67	11.588
423.03	11.732
423.39	11.777
423.74	11.918
424.10	12.067
424.45	12.164
424.81	12.187
425.16	12.337
425.52	12.735
425.87	12.504
426.23	12.808
426.58	12.940
426.94	13.243
427.29	13.360
427.65	13.423
428.00	13.517
428.36	13.590
428.71	13.519
429.07	13.803
429.42	14.013
429.78	13.970
430.13	14.219
430.49	14.286
430.84	14.301
431.19	14.542
431.55	14.534
431.90	14.832
432.26	14.828
432.61	14.954
432.97	15.195
433.32	15.375
433.68	15.360
434.03	15.420
434.39	15.780
434.74	15.571
435.09	15.857
435.45	15.898
435.80	16.002
436.16	16.099
436.51	16.291
436.86	16.330
437.22	16.441
437.57	16.658
437.93	16.614
438.28	16.751
438.63	16.840
438.99	16.970
439.34	17.116
439.70	17.122
440.05	17.237
440.40	17.455
440.76	17.561
441.11	17.544
441.47	17.671
441.82	17.892
442.17	17.968
442.53	17.984
442.88	18.020
443.23	18.073
443.59	18.231
443.94	18.502
444.29	18.407
444.65	18.611
445.00	18.597
445.35	18.840
445.71	18.747
446.06	18.965
446.41	19.102
446.77	18.972
447.12	19.179
447.47	19.235
447.83	19.342
448.18	19.530
448.53	19.583
448.89	19.624
449.24	19.534
449.59	19.863
449.94	19.977
450.30	19.952
450.65	20.176
451.00	20.130
451.36	20.320
451.71	20.401
452.06	20.539
452.41	20.606
452.77	20.603
453.12	20.767
453.47	20.956
453.82	21.008
454.18	20.940
454.53	21.117
454.88	21.284
455.23	21.331
455.59	21.508
455.94	21.617
456.29	21.621
456.64	21.844
457.00	21.854
457.35	21.918
457.70	21.976
458.05	22.215
458.40	22.239
458.76	22.331
459.11	22.462
459.46	22.422
459.81	22.602
460.16	22.760
460.52	22.818
460.87	22.847
461.22	23.014
461.57	22.922
461.92	23.070
462.28	23.270
462.63	23.310
462.98	23.355
463.33	23.517
463.68	23.657
464.03	23.653
464.38	23.757
464.74	23.799
465.09	23.905
465.44	23.964
465.79	24.079
466.14	24.243
466.49	24.230
466.84	24.283
467.20	24.391
467.55	24.523
467.90	24.600
468.25	24.808
468.60	24.791
468.95	24.682
469.30	24.851
469.65	24.987
470.00	25.021
470.36	24.963
470.71	25.057
471.06	25.095
471.41	25.186
471.76	25.377
472.11	25.384
472.46	25.370
472.81	25.425
473.16	25.514
473.51	25.524
473.86	25.600
474.21	25.688
474.56	25.574
474.91	25.592
475.26	25.636
475.62	25.689
475.97	25.751
476.32	25.766
476.67	25.794
477.02	25.731
477.37	25.794
477.72	25.870
478.07	25.856
478.42	25.813
478.77	25.861
479.12	25.918
479.47	25.877
479.82	25.808
480.17	25.874
480.52	25.862
480.87	25.933
481.22	26.009
481.57	25.858
481.92	25.854
482.27	25.934
482.62	25.994
482.97	26.025
483.32	25.969
483.67	25.996
484.02	26.030
484.36	26.060
484.71	26.052
485.06	26.029
485.41	26.046
485.76	26.145
486.11	26.226
486.46	26.207
486.81	26.289
487.16	26.233
487.51	26.349
487.86	26.374
488.21	26.393
488.56	26.445
488.91	26.480
489.25	26.538
489.60	26.640
489.95	26.655
490.30	26.800
490.65	26.903
491.00	26.928
491.35	26.969
491.70	27.051
492.05	27.077
492.39	27.223
492.74	27.337
493.09	27.379
493.44	27.350
493.79	27.525
494.14	27.560
494.49	27.613
494.83	27.738
495.18	27.806
495.53	27.764
495.88	27.938
496.23	28.058
496.58	28.057
496.92	28.237
497.27	28.256
497.62	28.359
497.97	28.443
498.32	28.455
498.67	28.608
499.01	28.632
499.36	28.689
499.71	28.756
500.06	28.815
500.41	28.910
500.75	28.967
501.10	29.012
501.45	29.082
501.80	29.108
502.14	29.164
502.49	29.139
502.84	29.332
503.19	29.390
503.53	29.412
503.88	29.490
504.23	29.472
504.58	29.528
504.92	29.590
505.27	29.632
505.62	29.639
505.97	29.682
506.31	29.688
506.66	29.773
507.01	29.745
507.36	29.792
507.70	29.771
508.05	29.765
508.40	29.795
508.74	29.814
509.09	29.760
509.44	29.682
509.79	29.672
510.13	29.667
510.48	29.663
510.83	29.633
511.17	29.659
511.52	29.628
511.87	29.545
512.21	29.539
512.56	29.631
512.91	29.661
513.25	29.584
513.60	29.642
513.95	29.713
514.29	29.686
514.64	29.712
514.98	29.792
515.33	29.767
515.68	29.901
516.02	29.877
516.37	29.932
516.72	29.990
517.06	30.020
517.41	30.019
517.75	30.100
518.10	30.050
518.45	30.147
518.79	30.181
519.14	30.195
519.48	30.218
519.83	30.160
520.18	30.240
520.52	30.280
520.87	30.282
521.21	30.381
521.56	30.323
521.90	30.333
522.25	30.357
522.60	30.357
522.94	30.399
523.29	30.430
523.63	30.355
523.98	30.383
524.32	30.380
524.67	30.373
525.01	30.343
525.36	30.292
525.70	30.229
526.05	30.230
526.39	30.134
526.74	30.105
527.08	30.054
527.43	29.980
527.77	29.934
528.12	29.911
528.46	29.786
528.81	29.762
529.15	29.674
529.50	29.576
529.84	29.551
530.19	29.455
530.53	29.285
530.88	29.180
531.22	29.065
531.57	28.916
531.91	28.824
532.26	28.676
532.60	28.578
532.94	28.402
533.29	28.215
533.63	28.049
533.98	27.836
534.32	27.836
534.67	27.580
535.01	27.354
535.35	27.172
535.70	26.993
536.04	26.780
536.39	26.634
536.73	26.355
537.07	26.099
537.42	25.955
537.76	25.713
538.11	25.559
538.45	25.322
538.79	25.104
539.14	24.893
539.48	24.704
539.82	24.524
540.17	24.348
540.51	24.128
540.85	23.987
541.20	23.851
541.54	23.627
541.89	23.479
542.23	23.344
542.57	23.211
542.92	23.133
543.26	22.987
543.60	22.918
543.94	22.878
544.29	22.856
544.63	22.765
544.97	22.726
545.32	22.617
545.66	22.577
546.00	22.624
546.35	22.588
546.69	22.661
547.03	22.584
547.37	22.639
547.72	22.693
548.06	22.755
548.40	22.765
548.75	22.788
549.09	22.845
549.43	22.880
549.77	22.944
550.12	22.977
550.46	23.123
550.80	23.240
551.14	23.391
551.49	23.382
551.83	23.618
552.17	23.677
552.51	23.855
552.85	23.943
553.20	24.112
553.54	24.424
553.88	24.530
554.22	24.658
554.56	24.876
554.91	25.152
555.25	25.340
555.59	25.446
555.93	25.760
556.27	25.990
556.62	26.216
556.96	26.541
557.30	26.676
557.64	26.933
557.98	27.215
558.32	27.388
558.67	27.691
559.01	27.929
559.35	28.147
559.69	28.345
560.03	28.635
560.37	28.838
560.71	29.157
561.05	29.379
561.40	29.427
561.74	29.786
562.08	29.948
562.42	30.185
562.76	30.408
563.10	30.588
563.44	30.717
563.78	30.937
564.12	31.102
564.46	31.313
564.81	31.382
565.15	31.584
565.49	31.668
565.83	31.744
566.17	31.862
566.51	31.924
566.85	32.021
567.19	32.207
567.53	32.181
567.87	32.314
568.21	32.346
568.55	32.382
568.89	32.431
569.23	32.490
569.57	32.494
569.91	32.481
570.25	32.466
570.59	32.484
570.93	32.460
571.27	32.429
571.61	32.401
571.95	32.266
572.29	32.258
572.63	32.211
572.97	32.200
573.31	32.132
573.65	32.005
573.99	31.922
574.33	31.806
574.67	31.736
575.01	31.583
575.35	31.526
575.69	31.406
576.03	31.291
576.37	31.157
576.71	31.007
577.05	30.895
577.39	30.773
577.73	30.652
578.06	30.395
578.40	30.289
578.74	30.128
579.08	29.899
579.42	29.740
579.76	29.560
580.10	29.349
580.44	29.176
580.78	29.004
581.12	28.791
581.45	28.618
581.79	28.404
582.13	28.197
582.47	28.074
582.81	27.867
583.15	27.630
583.49	27.477
583.83	27.281
584.16	27.098
584.50	27.005
584.84	26.901
585.18	26.723
585.52	26.501
585.86	26.463
586.19	26.263
586.53	26.108
586.87	26.000
587.21	25.778
587.55	25.596
587.88	25.545
588.22	25.364
588.56	25.141
588.90	24.925
589.24	24.787
589.57	24.599
589.91	24.426
590.25	24.214
590.59	23.974
590.92	23.759
591.26	23.609
591.60	23.282
591.94	23.123
592.27	22.842
592.61	22.583
592.95	22.295
593.29	22.103
593.62	21.760
593.96	21.492
594.30	21.206
594.64	20.883
594.97	20.592
595.31	20.237
595.65	19.845
595.98	19.490
596.32	19.073
596.66	18.655
597.00	18.241
597.33	17.810
597.67	17.314
598.01	16.925
598.34	16.447
598.68	16.050
599.02	15.580
599.35	15.169
599.69	14.768
600.03	14.367
600.36	14.018
600.70	13.690
601.03	13.340
601.37	13.035
601.71	12.773
602.04	12.449
602.38	12.201
602.72	11.906
603.05	11.642
603.39	11.407
603.72	11.152
604.06	10.891
604.40	10.673
604.73	10.378
605.07	10.090
605.40	9.869
605.74	9.556
606.08	9.297
606.41	9.027
606.75	8.798
607.08	8.484
607.42	8.241
607.75	7.974
608.09	7.705
608.42	7.458
608.76	7.147
609.10	6.881
609.43	6.605
609.77	6.354
610.10	6.110
610.44	5.883
610.77	5.614
611.11	5.356
611.44	5.138
611.78	4.905
612.11	4.681
612.45	4.458
612.78	4.220
613.12	4.030
613.45	3.828
613.79	3.619
614.12	3.447
614.46	3.251
614.79	3.111
615.13	2.952
615.46	2.813
615.79	2.640
616.13	2.550
616.46	2.398
616.80	2.293
617.13	2.185
617.47	2.090
617.80	1.988
618.13	1.918
618.47	1.827
618.80	1.770
619.14	1.693
619.47	1.627
619.81	1.563
620.14	1.493
620.47	1.433
620.81	1.372
621.14	1.339
621.47	1.305
621.81	1.245
622.14	1.210
622.48	1.165
622.81	1.139
623.14	1.098
623.48	1.064
623.81	1.041
624.14	1.009
624.48	1.000
624.81	0.982
625.14	0.949
625.48	0.949
625.81	0.924
626.14	0.928
626.48	0.903
626.81	0.890
627.14	0.910
627.48	0.914
627.81	0.915
628.14	0.930
628.47	0.940
628.81	0.957
629.14	1.000
629.47	1.017
629.81	1.065
630.14	1.070
630.47	1.149
630.80	1.210
631.14	1.260
631.47	1.292
631.80	1.353
632.13	1.440
632.47	1.526
632.80	1.633
633.13	1.715
633.46	1.823
633.79	1.932
634.13	2.046
634.46	2.173
634.79	2.324
635.12	2.467
635.45	2.632
635.79	2.783
636.12	2.963
636.45	3.159
636.78	3.341
637.11	3.508
637.45	3.735
637.78	3.970
638.11	4.212
638.44	4.411
638.77	4.672
639.10	4.877
639.44	5.139
639.77	5.380
640.10	5.615
640.43	5.893
640.76	6.140
641.09	6.413
641.42	6.682
641.75	6.953
642.08	7.171
642.42	7.450
642.75	7.728
643.08	7.994
643.41	8.264
643.74	8.542
644.07	8.747
644.40	8.973
644.73	9.220
645.06	9.468
645.39	9.688
645.72	9.970
646.05	10.179
646.38	10.392
646.72	10.606
647.05	10.804
647.38	10.998
647.71	11.160
648.04	11.359
648.37	11.498
648.70	11.633
649.03	11.798
649.36	11.869
649.69	11.976
650.02	12.059
650.35	12.140
650.68	12.223
651.01	12.199
651.34	12.237
651.67	12.213
652.00	12.222
652.33	12.125
652.66	12.054
652.99	11.983
653.31	11.846
653.64	11.703
653.97	11.535
654.30	11.333
654.63	11.164
654.96	10.956
655.29	10.677
655.62	10.445
655.95	10.176
656.28	9.921
656.61	9.642
656.94	9.361
657.27	9.116
657.60	8.808
657.92	8.519
658.25	8.279
658.58	8.027
658.91	7.800
659.24	7.541
659.57	7.352
659.90	7.134
660.23	6.929
660.55	6.752
660.88	6.531
661.21	6.361
661.54	6.161
661.87	5.982
662.20	5.837
662.52	5.646
662.85	5.504
663.18	5.321
663.51	5.157
663.84	5.019
664.16	4.860
664.49	4.724
664.82	4.593
665.15	4.492
665.48	4.366
665.80	4.209
666.13	4.110
666.46	4.012
666.79	3.905
667.12	3.786
667.44	3.671
667.77	3.587
668.10	3.486
668.43	3.432
668.75	3.323
669.08	3.268
669.41	3.177
669.73	3.115
670.06	3.049
670.39	2.976
670.72	2.940
671.04	2.870
671.37	2.826
671.70	2.777
672.02	2.722
672.35	2.702
672.68	2.647
673.00	2.610
673.33	2.570
673.66	2.531
673.98	2.506
674.31	2.467
674.64	2.496
674.96	2.421
675.29	2.435
675.62	2.418
675.94	2.363
676.27	2.371
676.60	2.342
676.92	2.319
677.25	2.325
677.58	2.311
677.90	2.320
678.23	2.319
678.55	2.277
678.88	2.272
679.21	2.268
679.53	2.244
679.86	2.227
680.18	2.215
680.51	2.180
680.83	2.189
681.16	2.139
681.49	2.170
681.81	2.121
682.14	2.108
682.46	2.052
682.79	2.074
683.11	2.049
683.44	1.992
683.76	1.981
684.09	1.971
684.41	1.945
684.74	1.934
685.06	1.930
685.39	1.915
685.71	1.905
686.04	1.864
686.36	1.868
686.69	1.872
687.01	1.797
687.34	1.838
687.66	1.792
687.99	1.777
688.31	1.755
688.64	1.753
688.96	1.716
689.29	1.692
689.61	1.671
689.93	1.618
690.26	1.632
690.58	1.542
690.91	1.521
691.23	1.481
691.56	1.524
691.88	1.456
692.20	1.374
692.53	1.364
692.85	1.300
693.18	1.236
693.50	1.216
693.82	1.167
694.15	1.095
694.47	1.062
694.79	0.991
695.12	0.962
695.44	0.878
695.76	0.820
696.09	0.784
696.41	0.725
696.73	0.664
697.06	0.606
697.38	0.510
697.70	0.461
698.03	0.419
698.35	0.343
698.67	0.326
699.00	0.263
699.32	0.215
699.64	0.192
699.97	0.120
700.29	0.064
700.61	0.046
700.93	0.025
701.26	-0.046
701.58	-0.054
701.90	-0.076
702.22	-0.122
702.55	-0.188
702.87	-0.161
703.19	-0.217
703.51	-0.220
703.84	-0.242
704.16	-0.273
704.48	-0.271
704.80	-0.280
705.13	-0.307
705.45	-0.309
705.77	-0.327
706.09	-0.305
706.41	-0.354
706.74	-0.390
707.06	-0.405
707.38	-0.375
707.70	-0.418
708.02	-0.414
708.34	-0.424
708.67	-0.432
708.99	-0.467
709.31	-0.438
709.63	-0.401
709.95	-0.487
710.27	-0.463
710.59	-0.498
710.92	-0.469
711.24	-0.475
711.56	-0.524
711.88	-0.462
712.20	-0.491
712.52	-0.505
712.84	-0.517
713.16	-0.490
713.48	-0.529
713.80	-0.545
714.12	-0.530
714.45	-0.533
714.77	-0.562
715.09	-0.541
715.41	-0.563
715.73	-0.600
716.05	-0.542
716.37	-0.559
716.69	-0.588
717.01	-0.613
717.33	-0.569
717.65	-0.641
717.97	-0.587
718.29	-0.664
718.61	-0.609
718.93	-0.664
719.25	-0.707
719.57	-0.646
719.89	-0.661
720.21	-0.687
720.53	-0.714
720.85	-0.700
721.17	-0.710
721.49	-0.689
721.81	-0.780
722.13	-0.785
722.45	-0.757
722.77	-0.806
723.09	-0.799
723.41	-0.792
723.72	-0.820
724.04	-0.800
724.36	-0.864
724.68	-0.916
725.00	-0.912
725.32	-0.865
725.64	-0.927
725.96	-0.966
726.28	-0.912
726.60	-0.938
726.91	-0.996
727.23	-0.969
727.55	-1.038
727.87	-1.078
728.19	-1.020
728.51	-1.076
728.83	-1.075
729.14	-1.075
729.46	-1.043
729.78	-1.126
730.10	-1.086
730.42	-1.057
730.74	-1.123
731.05	-1.136
731.37	-1.146
731.69	-1.201
732.01	-1.176
732.33	-1.165
732.64	-1.158
732.96	-1.323
733.28	-1.240
733.60	-1.164
733.92	-1.170
734.23	-1.172
734.55	-1.279
734.87	-1.272
735.19	-1.228
735.50	-1.167
735.82	-1.337
736.14	-1.330
736.45	-1.220
736.77	-1.193
737.09	-1.207
737.41	-1.337
737.72	-1.277
738.04	-1.271
738.36	-1.188
738.67	-1.312
738.99	-1.155
739.31	-1.281
739.63	-1.260
739.94	-1.272
740.26	-1.171
740.58	-1.179
740.89	-1.177
741.21	-1.199
741.52	-1.209
741.84	-1.144
742.16	-1.179
742.47	-1.127
742.79	-1.074
743.11	-1.127
743.42	-1.065
743.74	-1.096
744.05	-1.152
744.37	-1.192
744.69	-1.041
745.00	-1.196
745.32	-1.074
745.63	-1.110
745.95	-1.115
746.27	-1.107
746.58	-1.099
746.90	-1.077
747.21	-1.112
747.53	-1.070
747.84	-1.065
748.16	-1.031
748.47	-1.006
748.79	-1.101
749.10	-1.088
749.42	-1.072
749.74	-1.078
750.05	-1.100
750.37	-1.070
750.68	-0.949
751.00	-1.017
751.31	-1.020
751.62	-0.986
751.94	-1.000
752.25	-0.939
752.57	-0.972
752.88	-0.964
753.20	-0.949
753.51	-0.925
753.83	-0.925
754.14	-0.897
754.46	-0.918
754.77	-0.926
755.08	-0.893
755.40	-0.972
755.71	-0.916
756.03	-0.863
756.34	-0.984
756.66	-0.864
756.97	-0.904
757.28	-0.930
757.60	-0.936
757.91	-0.896
758.22	-0.876
758.54	-0.853
758.85	-0.868
759.17	-0.864
759.48	-0.885
759.79	-0.850
760.11	-0.845
760.42	-0.876
760.73	-0.815
761.05	-0.882
761.36	-0.888
761.67	-0.876
761.99	-0.844
762.30	-0.805
762.61	-0.858
762.92	-0.846
763.24	-0.792
763.55	-0.831
763.86	-0.848
764.18	-0.831
764.49	-0.799
764.80	-0.821
765.11	-0.770
765.43	-0.825
765.74	-0.797
766.05	-0.807
766.36	-0.803
766.68	-0.807
766.99	-0.798
767.30	-0.853
767.61	-0.819
767.93	-0.844
768.24	-0.763
768.55	-0.799
768.86	-0.804
769.17	-0.862
769.49	-0.825
769.80	-0.807
770.11	-0.881
770.42	-0.909
770.73	-0.850
771.04	-0.758
771.36	-0.827
771.67	-0.825
771.98	-0.887
772.29	-0.817
772.60	-0.824
772.91	-0.820
773.22	-0.862
773.54	-0.892
773.85	-0.851
774.16	-0.880
774.47	-0.870
774.78	-0.876
775.09	-0.808
775.40	-0.866
775.71	-0.877
776.02	-0.790
776.33	-0.800
776.64	-0.859
776.96	-0.855
777.27	-0.958
777.58	-0.902
777.89	-0.836
778.20	-0.895
778.51	-0.837
778.82	-0.914
779.13	-0.930
779.44	-0.975
779.75	-0.949
780.06	-1.007
780.37	-0.907
780.68	-0.930
780.99	-0.964
781.30	-0.933
781.61	-0.969
781.92	-0.982
782.23	-1.038
782.54	-0.956
782.85	-1.020
783.16	-1.048
783.47	-1.015
783.78	-1.027
784.08	-1.042
784.39	-1.049
784.70	-0.988
785.01	-1.099
785.32	-1.088
785.63	-1.116
785.94	-1.117
786.25	-1.123
786.56	-1.078
786.87	-1.105
787.18	-1.114
787.48	-1.136
787.79	-1.127
788.10	-1.148
788.41	-1.096
788.72	-1.128
789.03	-1.255
789.34	-1.186
789.64	-1.193
789.95	-1.203
790.26	-1.264
790.57	-1.114
790.88	-1.323
791.19	-1.235
791.49	-1.283
791.80	-1.282
792.11	-1.297
792.42	-1.376
792.73	-1.360
793.03	-1.384
793.34	-1.389
793.65	-1.347
793.96	-1.428
794.27	-1.457
794.57	-1.438
794.88	-1.354
795.19	-1.363
795.50	-1.520
795.80	-1.446
796.11	-1.554
796.42	-1.516
796.72	-1.545
797.03	-1.466
797.34	-1.574
797.65	-1.582
797.95	-1.648
798.26	-1.593
798.57	-1.544
798.87	-1.662
799.18	-1.610
799.49	-1.749
799.79	-1.716
800.10	-1.714
800.41	-1.845
800.71	-1.790
801.02	-1.709
801.33	-1.730
801.63	-1.858
801.94	-1.831
802.24	-1.926
802.55	-1.848
802.86	-2.032
803.16	-1.848
803.47	-2.010
803.77	-2.007
804.08	-1.890
804.39	-1.975
804.69	-1.935
805.00	-2.049
805.30	-2.122
805.61	-2.118
805.91	-2.041
806.22	-2.189
806.53	-2.062
806.83	-2.008
807.14	-2.136
807.44	-2.161
807.75	-2.147
808.05	-2.210
808.36	-2.361
808.66	-2.270
808.97	-2.227
809.27	-2.279
809.58	-2.306
809.88	-2.384
810.19	-2.372
810.49	-2.320
810.80	-2.327
811.10	-2.440
811.41	-2.552
811.71	-2.514
812.01	-2.457
812.32	-2.546
812.62	-2.663
812.93	-2.711
813.23	-2.781
813.54	-2.921
813.84	-2.814
814.14	-2.827
814.45	-2.880
814.75	-2.793
815.06	-2.932
815.36	-2.996
815.66	-3.005
815.97	-2.932
816.27	-3.100
816.58	-2.986
816.88	-3.101
817.18	-2.984
817.49	-3.009
817.79	-3.042
818.09	-3.320
818.40	-3.362
818.70	-3.219
819.00	-3.335
819.31	-3.294
819.61	-3.399
819.91	-3.506
820.21	-3.645
820.52	-3.707
820.82	-3.746
821.12	-3.591
821.43	-3.590
821.73	-3.905
822.03	-3.819
822.33	-3.769
822.64	-3.545
822.94	-3.958
823.24	-4.108
823.54	-4.110
823.85	-4.091
824.15	-4.345
824.45	-4.131
824.75	-4.395
825.05	-4.036
825.36	-4.457
825.66	-4.695
825.96	-4.844
826.26	-4.515
826.56	-4.920
826.87	-4.850
827.17	-5.065
827.47	-4.555
827.77	-5.304
828.07	-5.426
828.37	-5.251
828.67	-5.468
828.98	-5.572
829.28	-5.659
829.58	-5.604
829.88	-5.513
830.18	-5.686
830.48	-5.960
830.78	-6.234
831.08	-5.856
831.38	-6.667
831.69	-6.026
831.99	-6.525
832.29	-6.466
832.59	-6.610
832.89	-6.827
833.19	-7.553
833.49	-7.167
833.79	-7.395
834.09	-7.574
834.39	-7.410
834.69	-7.463
834.99	-7.809
835.29	-8.205
835.59	-8.503
835.89	-8.427
836.19	-8.375
836.49	-8.901
836.79	-9.003
837.09	-8.996
837.39	-9.484
837.69	-9.733
837.99	-10.161
838.29	-10.000
838.59	-10.411
838.89	-10.427
839.19	-11.298
839.49	-10.717
839.79	-12.223
840.09	-11.819
840.39	-11.583
840.68	-11.857
840.98	-13.077
841.28	-12.929
841.58	-13.045
841.88	-14.200
842.18	-14.056
842.48	-13.402
842.78	-14.531
843.08	-15.160
843.37	-14.630
843.67	-14.190
843.97	-15.614
844.27	-16.847
844.57	-17.218
844.87	-17.161
845.16	-16.604
845.46	-18.994
845.76	-17.688
846.06	-18.526
846.36	-20.236
846.66	-18.202
846.95	-20.054
847.25	-21.198
847.55	-21.833
847.85	-20.658
848.14	-22.306
848.44	-22.042
848.74	-23.025
849.04	-25.517
849.33	-24.060
849.63	-24.861
849.93	-26.556
850.23	-27.775
850.52	-28.459
850.82	-26.790
851.12	-29.493
851.42	-30.973
851.71	-29.669
852.01	-30.491
852.31	-31.924
852.60	-30.396
852.90	-34.390
853.20	-36.358
853.49	-35.180
853.79	-38.334
854.09	-33.994
854.38	-37.405
854.68	-40.044
854.98	-39.261
855.27	-40.961
855.57	-39.119
855.86	-39.164
856.16	-38.195
856.46	-41.258
856.75	-41.324
857.05	-40.449
857.34	-47.349
857.64	-41.106
857.94	-44.486
858.23	-47.366
858.53	-44.138
858.82	-50.159
859.12	-43.156
859.41	-44.654
859.71	-44.847
860.01	-48.088
860.30	-45.057
860.60	-44.030
860.89	-46.246
861.19	-44.444
861.48	-48.021
861.78	-48.931
862.07	-49.746
862.37	-45.926
862.66	-43.107
862.96	-47.875
863.25	-49.910
863.55	-47.995
863.84	-45.796
864.13	-45.151
864.43	-51.002
864.72	-45.133
865.02	-47.062
865.31	-49.566
865.61	-44.934
865.90	-47.447
866.19	-48.683
866.49	-48.982
866.78	-46.369
867.08	-46.909
867.37	-49.365
867.66	-46.295
867.96	-50.916
868.25	-45.868
868.55	-43.904
868.84	-52.141
869.13	-47.547
869.43	-53.744
869.72	-46.022
870.01	-49.146
870.31	-46.540
870.60	-49.537
870.89	-50.994
871.19	-50.448
871.48	-47.443
871.77	-45.735
872.07	-49.073
872.36	-50.963
872.65	-49.102
872.94	-46.709
873.24	-47.572
873.53	-49.862
873.82	-49.928
874.11	-46.220
874.41	-50.981
874.70	-44.196
>>>>>End Processed Spectral Data<<<<<
