SpectraSuite Data File
++++++++++++++++++++++++++++++++++++
Date: Mon Apr 20 20:37:49 BST 2015
User: mpfc3
Dark Spectrum Present: Yes
Reference Spectrum Present: Yes
Number of Sampled Component Spectra: 1
Spectrometers: USB2E3636
Integration Time (usec): 30000 (USB2E3636)
Spectra Averaged: 100 (USB2E3636)
Boxcar Smoothing: 0 (USB2E3636)
Correct for Electrical Dark: No (USB2E3636)
Strobe/Lamp Enabled: No (USB2E3636)
Correct for Detector Non-linearity: No (USB2E3636)
Correct for Stray Light: No (USB2E3636)
Number of Pixels in Processed Spectrum: 2048
>>>>>Begin Processed Spectral Data<<<<<
180.28	0.000
180.65	206.154
181.02	180.769
181.39	191.348
181.77	197.309
182.14	187.800
182.51	208.725
182.88	195.354
183.25	221.145
183.63	186.528
184.00	188.372
184.37	198.344
184.74	194.790
185.11	202.050
185.49	211.860
185.86	173.743
186.23	220.665
186.60	206.208
186.97	219.266
187.35	208.913
187.72	220.595
188.09	175.446
188.46	196.653
188.83	185.375
189.20	-2100.000
189.58	-48.674
189.95	-49.282
190.32	-51.062
190.69	-47.215
191.06	-54.215
191.43	-53.352
191.81	-43.680
192.18	-49.867
192.55	-52.682
192.92	-46.871
193.29	-50.233
193.66	-45.120
194.03	-49.395
194.41	-48.523
194.78	-52.213
195.15	-53.726
195.52	-50.066
195.89	-51.675
196.26	-51.090
196.63	-58.550
197.01	-51.928
197.38	-51.811
197.75	-47.809
198.12	-47.184
198.49	-51.226
198.86	-41.313
199.23	-53.942
199.60	-49.075
199.98	-58.994
200.35	-42.346
200.72	-51.182
201.09	-56.927
201.46	-51.712
201.83	-56.683
202.20	-50.674
202.57	-54.520
202.94	-55.856
203.31	-50.101
203.69	-51.289
204.06	-46.999
204.43	-48.322
204.80	-55.379
205.17	-58.699
205.54	-55.379
205.91	-50.764
206.28	-53.043
206.65	-57.299
207.02	-58.618
207.39	-54.706
207.76	-54.108
208.14	-54.597
208.51	-51.935
208.88	-52.550
209.25	-50.615
209.62	-58.309
209.99	-58.517
210.36	-51.951
210.73	-57.842
211.10	-57.406
211.47	-51.776
211.84	-54.986
212.21	-57.360
212.58	-56.751
212.95	-55.034
213.32	-57.186
213.69	-50.919
214.06	-52.639
214.43	-52.988
214.80	-62.179
215.17	-57.710
215.55	-60.656
215.92	-54.742
216.29	-54.440
216.66	-54.444
217.03	-62.198
217.40	-53.777
217.77	-54.444
218.14	-60.247
218.51	-59.360
218.88	-60.253
219.25	-48.913
219.62	-65.976
219.99	-62.192
220.36	-62.327
220.73	-59.340
221.10	-59.053
221.47	-58.583
221.84	-67.430
222.21	-67.867
222.58	-62.783
222.95	-67.895
223.32	-65.607
223.69	-61.440
224.06	-53.870
224.43	-58.062
224.80	-63.953
225.17	-69.983
225.54	-57.950
225.91	-60.063
226.27	-51.702
226.64	-63.198
227.01	-63.898
227.38	-69.091
227.75	-70.104
228.12	-63.799
228.49	-65.673
228.86	-66.285
229.23	-72.963
229.60	-66.933
229.97	-68.122
230.34	-66.978
230.71	-77.431
231.08	-69.604
231.45	-65.478
231.82	-61.974
232.19	-68.421
232.56	-68.549
232.93	-72.566
233.30	-73.886
233.66	-69.573
234.03	-65.313
234.40	-60.211
234.77	-71.232
235.14	-70.856
235.51	-78.730
235.88	-74.376
236.25	-73.909
236.62	-66.457
236.99	-71.402
237.36	-67.938
237.73	-71.538
238.09	-69.027
238.46	-72.509
238.83	-72.414
239.20	-74.331
239.57	-65.483
239.94	-71.021
240.31	-70.631
240.68	-68.710
241.05	-75.453
241.41	-70.009
241.78	-81.467
242.15	-70.029
242.52	-71.035
242.89	-87.382
243.26	-67.274
243.63	-66.875
244.00	-83.405
244.36	-62.973
244.73	-73.669
245.10	-80.363
245.47	-64.595
245.84	-72.665
246.21	-81.375
246.58	-80.777
246.94	-71.173
247.31	-81.067
247.68	-75.026
248.05	-80.402
248.42	-83.851
248.79	-82.255
249.15	-78.608
249.52	-79.145
249.89	-81.535
250.26	-76.200
250.63	-79.767
251.00	-86.218
251.36	-79.438
251.73	-74.621
252.10	-85.761
252.47	-88.620
252.84	-81.124
253.20	-77.687
253.57	-79.545
253.94	-90.476
254.31	-77.711
254.68	-86.167
255.05	-84.574
255.41	-81.458
255.78	-89.927
256.15	-81.270
256.52	-76.938
256.88	-86.277
257.25	-89.965
257.62	-80.649
257.99	-73.630
258.36	-82.535
258.72	-90.434
259.09	-93.039
259.46	-99.277
259.83	-85.210
260.19	-75.407
260.56	-93.333
260.93	-85.320
261.30	-89.640
261.67	-106.492
262.03	-91.164
262.40	-81.789
262.77	-92.265
263.14	-95.673
263.50	-90.639
263.87	-90.736
264.24	-85.714
264.61	-91.580
264.97	-83.726
265.34	-91.010
265.71	-83.757
266.07	-78.237
266.44	-89.498
266.81	-90.289
267.18	-89.201
267.54	-91.545
267.91	-83.019
268.28	-91.268
268.64	-86.047
269.01	-78.070
269.38	-96.702
269.75	-95.566
270.11	-106.650
270.48	-98.210
270.85	-76.415
271.21	-91.355
271.58	-93.977
271.95	-94.713
272.32	-85.268
272.68	-85.651
273.05	-98.451
273.42	-84.598
273.78	-78.571
274.15	-92.408
274.52	-87.946
274.88	-92.732
275.25	-82.790
275.62	-79.577
275.98	-89.625
276.35	-88.035
276.72	-76.749
277.08	-94.206
277.45	-90.556
277.82	-91.385
278.18	-84.013
278.55	-98.511
278.92	-95.540
279.28	-77.894
279.65	-87.824
280.01	-91.390
280.38	-88.401
280.75	-90.621
281.11	-101.415
281.48	-86.543
281.85	-94.952
282.21	-97.098
282.58	-90.185
282.95	-92.362
283.31	-90.035
283.68	-87.931
284.04	-67.252
284.41	-95.873
284.78	-90.205
285.14	-91.389
285.51	-84.101
285.87	-85.294
286.24	-87.370
286.61	-102.567
286.97	-87.744
287.34	-104.643
287.70	-95.535
288.07	-80.333
288.44	-88.702
288.80	-81.755
289.17	-86.399
289.53	-83.007
289.90	-81.250
290.26	-94.850
290.63	-75.951
291.00	-96.970
291.36	-77.708
291.73	-70.332
292.09	-82.249
292.46	-78.237
292.82	-92.522
293.19	-89.323
293.56	-87.779
293.92	-83.518
294.29	-100.823
294.65	-86.343
295.02	-90.370
295.38	-103.103
295.75	-77.861
296.11	-81.298
296.48	-79.162
296.84	-89.552
297.21	-100.352
297.57	-90.835
297.94	-96.113
298.30	-90.380
298.67	-88.677
299.04	-98.118
299.40	-78.908
299.77	-78.317
300.13	-91.399
300.50	-75.963
300.86	-85.618
301.23	-85.177
301.59	-72.250
301.96	-104.182
302.32	-86.400
302.69	-91.391
303.05	-80.918
303.42	-82.365
303.78	-82.646
304.14	-77.755
304.51	-76.979
304.87	-98.736
305.24	-68.004
305.60	-77.622
305.97	-71.386
306.33	-74.280
306.70	-72.865
307.06	-66.635
307.43	-73.027
307.79	-81.321
308.16	-65.396
308.52	-79.712
308.88	-86.830
309.25	-76.000
309.61	-70.209
309.98	-81.250
310.34	-81.034
310.71	-74.238
311.07	-73.611
311.44	-81.011
311.80	-70.983
312.16	-71.564
312.53	-74.049
312.89	-77.379
313.26	-67.837
313.62	-74.951
313.98	-68.215
314.35	-78.122
314.71	-71.332
315.08	-78.044
315.44	-73.206
315.80	-73.521
316.17	-68.847
316.53	-64.970
316.90	-58.045
317.26	-77.419
317.62	-65.291
317.99	-63.158
318.35	-59.102
318.72	-59.102
319.08	-60.314
319.44	-71.817
319.81	-57.131
320.17	-61.020
320.53	-71.141
320.90	-55.887
321.26	-56.047
321.62	-55.000
321.99	-58.691
322.35	-52.187
322.72	-52.259
323.08	-55.211
323.44	-55.198
323.81	-56.349
324.17	-57.328
324.53	-56.000
324.90	-54.050
325.26	-51.878
325.62	-52.920
325.99	-57.767
326.35	-49.489
326.71	-51.164
327.08	-45.334
327.44	-47.152
327.80	-46.684
328.16	-46.773
328.53	-52.131
328.89	-53.968
329.25	-50.929
329.62	-39.624
329.98	-37.474
330.34	-40.666
330.71	-45.744
331.07	-40.935
331.43	-37.889
331.79	-37.531
332.16	-38.625
332.52	-36.939
332.88	-35.798
333.24	-40.858
333.61	-38.345
333.97	-38.886
334.33	-34.179
334.70	-34.861
335.06	-33.574
335.42	-37.674
335.78	-32.306
336.15	-30.441
336.51	-33.608
336.87	-33.817
337.23	-33.392
337.60	-29.818
337.96	-31.440
338.32	-28.785
338.68	-30.537
339.04	-28.743
339.41	-28.566
339.77	-28.102
340.13	-27.645
340.49	-29.008
340.86	-26.614
341.22	-26.829
341.58	-25.691
341.94	-27.126
342.30	-27.283
342.67	-26.289
343.03	-25.150
343.39	-25.095
343.75	-23.273
344.11	-23.471
344.48	-21.962
344.84	-22.068
345.20	-22.293
345.56	-24.129
345.92	-22.105
346.28	-20.335
346.65	-22.070
347.01	-22.952
347.37	-20.445
347.73	-19.292
348.09	-21.549
348.45	-16.033
348.82	-19.701
349.18	-18.664
349.54	-18.980
349.90	-18.273
350.26	-17.837
350.62	-17.372
350.98	-16.000
351.35	-15.770
351.71	-17.669
352.07	-16.239
352.43	-17.077
352.79	-13.587
353.15	-15.688
353.51	-12.975
353.87	-16.850
354.24	-14.514
354.60	-14.232
354.96	-13.847
355.32	-14.592
355.68	-13.806
356.04	-14.574
356.40	-12.940
356.76	-14.822
357.12	-12.420
357.48	-13.357
357.85	-13.668
358.21	-12.099
358.57	-11.528
358.93	-13.400
359.29	-12.220
359.65	-11.643
360.01	-10.469
360.37	-11.399
360.73	-11.588
361.09	-10.943
361.45	-10.296
361.81	-10.765
362.17	-9.925
362.53	-10.290
362.89	-10.963
363.25	-10.138
363.62	-9.646
363.98	-10.908
364.34	-10.635
364.70	-9.609
365.06	-9.060
365.42	-9.460
365.78	-8.718
366.14	-9.069
366.50	-8.738
366.86	-9.053
367.22	-7.946
367.58	-8.737
367.94	-8.112
368.30	-7.348
368.66	-7.707
369.02	-7.317
369.38	-8.155
369.74	-7.675
370.10	-7.717
370.46	-7.031
370.82	-6.976
371.18	-7.429
371.54	-6.052
371.90	-7.204
372.26	-7.136
372.62	-6.896
372.98	-6.079
373.33	-6.184
373.69	-6.362
374.05	-6.678
374.41	-6.712
374.77	-6.303
375.13	-5.947
375.49	-5.780
375.85	-5.474
376.21	-5.580
376.57	-5.577
376.93	-5.272
377.29	-5.062
377.65	-5.160
378.01	-4.994
378.37	-4.729
378.73	-4.674
379.08	-4.286
379.44	-4.533
379.80	-4.076
380.16	-4.069
380.52	-4.143
380.88	-4.098
381.24	-3.743
381.60	-4.099
381.96	-3.792
382.32	-3.709
382.67	-3.048
383.03	-3.321
383.39	-3.593
383.75	-2.975
384.11	-2.679
384.47	-3.360
384.83	-2.294
385.19	-3.021
385.54	-2.153
385.90	-2.469
386.26	-2.464
386.62	-1.300
386.98	-1.707
387.34	-1.376
387.70	-1.932
388.05	-1.358
388.41	-1.299
388.77	-1.006
389.13	-0.646
389.49	-0.756
389.85	-0.709
390.20	-0.459
390.56	-0.716
390.92	-0.530
391.28	-0.064
391.64	0.326
391.99	0.031
392.35	0.579
392.71	0.497
393.07	0.498
393.43	0.541
393.78	1.049
394.14	1.341
394.50	1.288
394.86	1.543
395.22	1.559
395.57	1.677
395.93	2.022
396.29	1.999
396.65	1.918
397.00	2.356
397.36	2.405
397.72	2.339
398.08	2.605
398.43	2.768
398.79	2.997
399.15	3.187
399.51	3.496
399.86	3.616
400.22	3.833
400.58	3.172
400.94	3.740
401.29	4.076
401.65	4.177
402.01	4.307
402.37	4.594
402.72	4.442
403.08	4.881
403.44	4.819
403.79	5.029
404.15	4.833
404.51	5.294
404.86	5.416
405.22	5.922
405.58	5.644
405.94	5.675
406.29	6.036
406.65	6.256
407.01	6.039
407.36	6.486
407.72	6.569
408.08	6.485
408.43	6.641
408.79	7.072
409.15	7.133
409.50	6.989
409.86	7.565
410.22	7.492
410.57	7.536
410.93	7.887
411.29	8.173
411.64	7.969
412.00	8.202
412.35	8.350
412.71	8.377
413.07	8.709
413.42	8.619
413.78	8.970
414.14	8.955
414.49	9.040
414.85	9.284
415.20	9.286
415.56	9.578
415.92	9.965
416.27	9.869
416.63	9.968
416.98	10.112
417.34	9.999
417.70	10.329
418.05	10.449
418.41	10.680
418.76	10.681
419.12	11.086
419.47	11.116
419.83	10.907
420.19	11.418
420.54	11.608
420.90	11.627
421.25	11.579
421.61	12.002
421.96	11.808
422.32	12.273
422.67	12.006
423.03	12.241
423.39	12.416
423.74	12.550
424.10	12.748
424.45	12.569
424.81	12.815
425.16	12.810
425.52	13.194
425.87	12.978
426.23	13.343
426.58	13.533
426.94	13.567
427.29	13.777
427.65	13.921
428.00	14.019
428.36	14.053
428.71	14.025
429.07	14.300
429.42	14.397
429.78	14.488
430.13	14.793
430.49	14.703
430.84	14.834
431.19	15.083
431.55	14.982
431.90	15.235
432.26	15.387
432.61	15.432
432.97	15.736
433.32	15.591
433.68	15.673
434.03	15.969
434.39	16.303
434.74	16.156
435.09	16.219
435.45	16.383
435.80	16.568
436.16	16.536
436.51	16.676
436.86	16.686
437.22	17.033
437.57	17.006
437.93	17.100
438.28	17.193
438.63	17.331
438.99	17.397
439.34	17.683
439.70	17.596
440.05	17.633
440.40	17.639
440.76	17.903
441.11	17.961
441.47	18.164
441.82	18.197
442.17	18.402
442.53	18.285
442.88	18.495
443.23	18.480
443.59	18.587
443.94	18.695
444.29	18.745
444.65	18.873
445.00	19.066
445.35	19.290
445.71	19.297
446.06	19.275
446.41	19.406
446.77	19.362
447.12	19.462
447.47	19.679
447.83	19.855
448.18	19.988
448.53	19.892
448.89	20.060
449.24	20.034
449.59	20.181
449.94	20.300
450.30	20.463
450.65	20.545
451.00	20.603
451.36	20.895
451.71	20.783
452.06	20.798
452.41	20.946
452.77	20.924
453.12	21.211
453.47	21.356
453.82	21.344
454.18	21.389
454.53	21.387
454.88	21.500
455.23	21.639
455.59	21.719
455.94	21.897
456.29	21.950
456.64	22.137
457.00	22.211
457.35	22.442
457.70	22.349
458.05	22.503
458.40	22.541
458.76	22.757
459.11	22.721
459.46	22.795
459.81	22.886
460.16	23.112
460.52	23.151
460.87	23.275
461.22	23.395
461.57	23.422
461.92	23.355
462.28	23.497
462.63	23.679
462.98	23.749
463.33	23.782
463.68	23.927
464.03	23.965
464.38	24.024
464.74	24.195
465.09	24.109
465.44	24.192
465.79	24.337
466.14	24.497
466.49	24.441
466.84	24.628
467.20	24.704
467.55	24.871
467.90	24.836
468.25	25.142
468.60	25.107
468.95	25.062
469.30	25.142
469.65	25.225
470.00	25.235
470.36	25.329
470.71	25.392
471.06	25.335
471.41	25.427
471.76	25.477
472.11	25.580
472.46	25.598
472.81	25.672
473.16	25.735
473.51	25.711
473.86	25.811
474.21	25.827
474.56	25.827
474.91	25.856
475.26	25.936
475.62	25.998
475.97	25.889
476.32	25.964
476.67	26.043
477.02	25.992
477.37	26.122
477.72	26.129
478.07	26.131
478.42	26.099
478.77	26.128
479.12	26.048
479.47	26.114
479.82	26.039
480.17	26.151
480.52	26.122
480.87	26.105
481.22	26.151
481.57	26.082
481.92	26.156
482.27	26.182
482.62	26.232
482.97	26.211
483.32	26.194
483.67	26.228
484.02	26.129
484.36	26.234
484.71	26.190
485.06	26.293
485.41	26.319
485.76	26.365
486.11	26.383
486.46	26.382
486.81	26.433
487.16	26.501
487.51	26.525
487.86	26.505
488.21	26.631
488.56	26.659
488.91	26.742
489.25	26.825
489.60	26.943
489.95	26.865
490.30	26.974
490.65	27.063
491.00	27.079
491.35	27.205
491.70	27.190
492.05	27.193
492.39	27.395
492.74	27.452
493.09	27.529
493.44	27.396
493.79	27.678
494.14	27.745
494.49	27.872
494.83	27.860
495.18	27.988
495.53	28.047
495.88	28.141
496.23	28.185
496.58	28.260
496.92	28.345
497.27	28.435
497.62	28.464
497.97	28.613
498.32	28.661
498.67	28.728
499.01	28.832
499.36	28.981
499.71	28.907
500.06	28.997
500.41	29.112
500.75	29.106
501.10	29.218
501.45	29.178
501.80	29.262
502.14	29.374
502.49	29.385
502.84	29.411
503.19	29.585
503.53	29.625
503.88	29.594
504.23	29.649
504.58	29.660
504.92	29.839
505.27	29.847
505.62	29.838
505.97	29.928
506.31	29.974
506.66	29.934
507.01	29.955
507.36	29.913
507.70	30.002
508.05	29.946
508.40	29.970
508.74	30.009
509.09	29.888
509.44	29.915
509.79	29.940
510.13	29.854
510.48	29.857
510.83	29.753
511.17	29.738
511.52	29.700
511.87	29.743
512.21	29.737
512.56	29.715
512.91	29.790
513.25	29.793
513.60	29.855
513.95	29.864
514.29	29.893
514.64	29.910
514.98	29.957
515.33	29.990
515.68	30.047
516.02	30.097
516.37	30.043
516.72	30.136
517.06	30.220
517.41	30.187
517.75	30.216
518.10	30.288
518.45	30.294
518.79	30.362
519.14	30.368
519.48	30.357
519.83	30.304
520.18	30.382
520.52	30.466
520.87	30.445
521.21	30.454
521.56	30.460
521.90	30.492
522.25	30.485
522.60	30.472
522.94	30.494
523.29	30.459
523.63	30.475
523.98	30.440
524.32	30.472
524.67	30.481
525.01	30.382
525.36	30.428
525.70	30.342
526.05	30.352
526.39	30.324
526.74	30.260
527.08	30.162
527.43	30.160
527.77	30.083
528.12	30.013
528.46	29.945
528.81	29.904
529.15	29.873
529.50	29.700
529.84	29.618
530.19	29.535
530.53	29.389
530.88	29.258
531.22	29.257
531.57	29.020
531.91	28.959
532.26	28.816
532.60	28.737
532.94	28.531
533.29	28.325
533.63	28.232
533.98	28.036
534.32	27.879
534.67	27.766
535.01	27.535
535.35	27.302
535.70	27.088
536.04	26.931
536.39	26.711
536.73	26.518
537.07	26.250
537.42	26.076
537.76	25.841
538.11	25.644
538.45	25.447
538.79	25.229
539.14	25.019
539.48	24.836
539.82	24.677
540.17	24.421
540.51	24.279
540.85	24.072
541.20	23.940
541.54	23.734
541.89	23.587
542.23	23.466
542.57	23.297
542.92	23.242
543.26	23.128
543.60	23.038
543.94	22.999
544.29	22.925
544.63	22.829
544.97	22.832
545.32	22.766
545.66	22.716
546.00	22.720
546.35	22.673
546.69	22.703
547.03	22.696
547.37	22.751
547.72	22.799
548.06	22.811
548.40	22.800
548.75	22.867
549.09	22.948
549.43	23.009
549.77	23.095
550.12	23.133
550.46	23.261
550.80	23.335
551.14	23.453
551.49	23.510
551.83	23.675
552.17	23.867
552.51	23.952
552.85	24.122
553.20	24.214
553.54	24.469
553.88	24.648
554.22	24.762
554.56	24.958
554.91	25.255
555.25	25.458
555.59	25.661
555.93	25.930
556.27	26.163
556.62	26.320
556.96	26.620
557.30	26.787
557.64	27.018
557.98	27.313
558.32	27.531
558.67	27.786
559.01	28.033
559.35	28.290
559.69	28.531
560.03	28.780
560.37	28.959
560.71	29.290
561.05	29.479
561.40	29.679
561.74	29.886
562.08	30.121
562.42	30.351
562.76	30.518
563.10	30.705
563.44	30.870
563.78	31.065
564.12	31.243
564.46	31.480
564.81	31.508
565.15	31.731
565.49	31.812
565.83	31.874
566.17	32.050
566.51	32.102
566.85	32.237
567.19	32.308
567.53	32.363
567.87	32.520
568.21	32.542
568.55	32.514
568.89	32.614
569.23	32.621
569.57	32.615
569.91	32.634
570.25	32.575
570.59	32.621
570.93	32.592
571.27	32.545
571.61	32.540
571.95	32.448
572.29	32.426
572.63	32.324
572.97	32.255
573.31	32.259
573.65	32.194
573.99	32.040
574.33	31.986
574.67	31.894
575.01	31.650
575.35	31.689
575.69	31.540
576.03	31.383
576.37	31.334
576.71	31.158
577.05	31.059
577.39	30.792
577.73	30.708
578.06	30.572
578.40	30.426
578.74	30.224
579.08	30.014
579.42	29.949
579.76	29.724
580.10	29.490
580.44	29.283
580.78	29.136
581.12	28.956
581.45	28.824
581.79	28.591
582.13	28.372
582.47	28.185
582.81	27.935
583.15	27.793
583.49	27.627
583.83	27.438
584.16	27.271
584.50	27.135
584.84	27.046
585.18	26.824
585.52	26.749
585.86	26.540
586.19	26.381
586.53	26.333
586.87	26.146
587.21	25.913
587.55	25.772
587.88	25.638
588.22	25.457
588.56	25.297
588.90	25.036
589.24	24.894
589.57	24.756
589.91	24.514
590.25	24.367
590.59	24.114
590.92	23.887
591.26	23.699
591.60	23.427
591.94	23.247
592.27	22.947
592.61	22.717
592.95	22.446
593.29	22.156
593.62	21.894
593.96	21.625
594.30	21.338
594.64	20.989
594.97	20.688
595.31	20.336
595.65	20.018
595.98	19.629
596.32	19.174
596.66	18.777
597.00	18.351
597.33	17.981
597.67	17.507
598.01	17.053
598.34	16.595
598.68	16.160
599.02	15.711
599.35	15.288
599.69	14.894
600.03	14.498
600.36	14.087
600.70	13.780
601.03	13.422
601.37	13.154
601.71	12.894
602.04	12.558
602.38	12.295
602.72	11.991
603.05	11.776
603.39	11.518
603.72	11.251
604.06	10.986
604.40	10.719
604.73	10.482
605.07	10.200
605.40	9.927
605.74	9.693
606.08	9.403
606.41	9.128
606.75	8.851
607.08	8.581
607.42	8.300
607.75	8.065
608.09	7.793
608.42	7.508
608.76	7.230
609.10	6.962
609.43	6.701
609.77	6.450
610.10	6.188
610.44	5.947
610.77	5.672
611.11	5.455
611.44	5.214
611.78	4.950
612.11	4.755
612.45	4.517
612.78	4.299
613.12	4.110
613.45	3.905
613.79	3.692
614.12	3.524
614.46	3.344
614.79	3.162
615.13	3.033
615.46	2.875
615.79	2.727
616.13	2.593
616.46	2.459
616.80	2.350
617.13	2.247
617.47	2.171
617.80	2.071
618.13	1.986
618.47	1.890
618.80	1.850
619.14	1.741
619.47	1.698
619.81	1.620
620.14	1.575
620.47	1.513
620.81	1.450
621.14	1.408
621.47	1.376
621.81	1.303
622.14	1.268
622.48	1.222
622.81	1.209
623.14	1.169
623.48	1.124
623.81	1.124
624.14	1.054
624.48	1.056
624.81	1.032
625.14	1.010
625.48	0.989
625.81	0.982
626.14	0.964
626.48	0.959
626.81	0.950
627.14	0.963
627.48	0.964
627.81	0.959
628.14	1.003
628.47	0.992
628.81	1.032
629.14	1.062
629.47	1.079
629.81	1.099
630.14	1.141
630.47	1.202
630.80	1.228
631.14	1.325
631.47	1.360
631.80	1.428
632.13	1.495
632.47	1.591
632.80	1.686
633.13	1.751
633.46	1.876
633.79	1.982
634.13	2.127
634.46	2.255
634.79	2.365
635.12	2.545
635.45	2.686
635.79	2.868
636.12	3.030
636.45	3.209
636.78	3.389
637.11	3.567
637.45	3.800
637.78	4.028
638.11	4.255
638.44	4.448
638.77	4.688
639.10	4.948
639.44	5.212
639.77	5.452
640.10	5.700
640.43	5.963
640.76	6.237
641.09	6.448
641.42	6.732
641.75	6.981
642.08	7.249
642.42	7.521
642.75	7.806
643.08	8.048
643.41	8.295
643.74	8.549
644.07	8.842
644.40	9.032
644.73	9.296
645.06	9.536
645.39	9.785
645.72	10.037
646.05	10.243
646.38	10.435
646.72	10.688
647.05	10.880
647.38	11.061
647.71	11.250
648.04	11.446
648.37	11.547
648.70	11.679
649.03	11.841
649.36	11.984
649.69	12.065
650.02	12.146
650.35	12.244
650.68	12.272
651.01	12.292
651.34	12.341
651.67	12.335
652.00	12.322
652.33	12.260
652.66	12.182
652.99	12.060
653.31	11.956
653.64	11.786
653.97	11.658
654.30	11.423
654.63	11.283
654.96	11.017
655.29	10.766
655.62	10.580
655.95	10.290
656.28	10.004
656.61	9.725
656.94	9.453
657.27	9.184
657.60	8.863
657.92	8.627
658.25	8.355
658.58	8.136
658.91	7.889
659.24	7.704
659.57	7.408
659.90	7.239
660.23	7.006
660.55	6.833
660.88	6.620
661.21	6.450
661.54	6.254
661.87	6.066
662.20	5.929
662.52	5.707
662.85	5.610
663.18	5.406
663.51	5.287
663.84	5.165
664.16	4.982
664.49	4.822
664.82	4.687
665.15	4.542
665.48	4.443
665.80	4.296
666.13	4.204
666.46	4.074
666.79	3.974
667.12	3.850
667.44	3.735
667.77	3.675
668.10	3.579
668.43	3.491
668.75	3.400
669.08	3.332
669.41	3.242
669.73	3.199
670.06	3.134
670.39	3.038
670.72	2.982
671.04	2.975
671.37	2.885
671.70	2.848
672.02	2.785
672.35	2.786
672.68	2.717
673.00	2.677
673.33	2.625
673.66	2.626
673.98	2.604
674.31	2.555
674.64	2.527
674.96	2.519
675.29	2.479
675.62	2.471
675.94	2.420
676.27	2.460
676.60	2.423
676.92	2.374
677.25	2.392
677.58	2.404
677.90	2.387
678.23	2.364
678.55	2.335
678.88	2.339
679.21	2.348
679.53	2.333
679.86	2.281
680.18	2.283
680.51	2.273
680.83	2.238
681.16	2.248
681.49	2.240
681.81	2.195
682.14	2.186
682.46	2.138
682.79	2.149
683.11	2.103
683.44	2.088
683.76	2.061
684.09	2.062
684.41	2.032
684.74	2.011
685.06	1.980
685.39	1.985
685.71	1.993
686.04	1.976
686.36	1.926
686.69	1.944
687.01	1.886
687.34	1.905
687.66	1.864
687.99	1.826
688.31	1.839
688.64	1.827
688.96	1.775
689.29	1.767
689.61	1.741
689.93	1.697
690.26	1.709
690.58	1.651
690.91	1.603
691.23	1.579
691.56	1.563
691.88	1.534
692.20	1.450
692.53	1.438
692.85	1.391
693.18	1.353
693.50	1.298
693.82	1.235
694.15	1.168
694.47	1.157
694.79	1.066
695.12	1.068
695.44	0.969
695.76	0.906
696.09	0.855
696.41	0.787
696.73	0.764
697.06	0.652
697.38	0.616
697.70	0.543
698.03	0.505
698.35	0.410
698.67	0.404
699.00	0.346
699.32	0.303
699.64	0.226
699.97	0.252
700.29	0.181
700.61	0.120
700.93	0.137
701.26	0.065
701.58	0.028
701.90	-0.012
702.22	-0.066
702.55	-0.084
702.87	-0.125
703.19	-0.121
703.51	-0.114
703.84	-0.151
704.16	-0.132
704.48	-0.196
704.80	-0.193
705.13	-0.217
705.45	-0.216
705.77	-0.250
706.09	-0.230
706.41	-0.266
706.74	-0.285
707.06	-0.308
707.38	-0.281
707.70	-0.338
708.02	-0.320
708.34	-0.357
708.67	-0.315
708.99	-0.352
709.31	-0.336
709.63	-0.288
709.95	-0.365
710.27	-0.392
710.59	-0.409
710.92	-0.364
711.24	-0.391
711.56	-0.435
711.88	-0.365
712.20	-0.389
712.52	-0.354
712.84	-0.390
713.16	-0.366
713.48	-0.412
713.80	-0.449
714.12	-0.372
714.45	-0.424
714.77	-0.441
715.09	-0.391
715.41	-0.468
715.73	-0.455
716.05	-0.459
716.37	-0.484
716.69	-0.472
717.01	-0.462
717.33	-0.429
717.65	-0.488
717.97	-0.456
718.29	-0.490
718.61	-0.497
718.93	-0.525
719.25	-0.531
719.57	-0.509
719.89	-0.546
720.21	-0.560
720.53	-0.565
720.85	-0.517
721.17	-0.583
721.49	-0.546
721.81	-0.612
722.13	-0.616
722.45	-0.599
722.77	-0.691
723.09	-0.660
723.41	-0.619
723.72	-0.694
724.04	-0.623
724.36	-0.693
724.68	-0.721
725.00	-0.699
725.32	-0.707
725.64	-0.796
725.96	-0.772
726.28	-0.746
726.60	-0.747
726.91	-0.764
727.23	-0.774
727.55	-0.826
727.87	-0.834
728.19	-0.863
728.51	-0.824
728.83	-0.868
729.14	-0.919
729.46	-0.860
729.78	-0.914
730.10	-0.846
730.42	-0.817
730.74	-0.833
731.05	-0.984
731.37	-0.852
731.69	-0.917
732.01	-0.904
732.33	-0.949
732.64	-0.964
732.96	-1.050
733.28	-0.958
733.60	-0.929
733.92	-0.930
734.23	-0.969
734.55	-1.048
734.87	-0.952
735.19	-1.014
735.50	-0.934
735.82	-0.979
736.14	-0.985
736.45	-0.906
736.77	-0.974
737.09	-1.011
737.41	-0.967
737.72	-1.140
738.04	-1.054
738.36	-1.067
738.67	-0.963
738.99	-1.005
739.31	-0.942
739.63	-1.026
739.94	-0.992
740.26	-1.005
740.58	-1.028
740.89	-0.878
741.21	-1.079
741.52	-1.016
741.84	-0.845
742.16	-0.955
742.47	-0.947
742.79	-0.879
743.11	-0.959
743.42	-0.855
743.74	-0.865
744.05	-0.889
744.37	-0.956
744.69	-0.840
745.00	-0.971
745.32	-0.850
745.63	-0.819
745.95	-0.967
746.27	-0.815
746.58	-0.878
746.90	-0.826
747.21	-0.899
747.53	-0.865
747.84	-0.894
748.16	-0.882
748.47	-0.766
748.79	-0.837
749.10	-0.847
749.42	-0.846
749.74	-0.867
750.05	-0.938
750.37	-0.856
750.68	-0.806
751.00	-0.814
751.31	-0.801
751.62	-0.744
751.94	-0.799
752.25	-0.749
752.57	-0.766
752.88	-0.808
753.20	-0.778
753.51	-0.762
753.83	-0.731
754.14	-0.755
754.46	-0.725
754.77	-0.754
755.08	-0.703
755.40	-0.754
755.71	-0.729
756.03	-0.752
756.34	-0.804
756.66	-0.640
756.97	-0.754
757.28	-0.747
757.60	-0.700
757.91	-0.720
758.22	-0.708
758.54	-0.670
758.85	-0.734
759.17	-0.705
759.48	-0.712
759.79	-0.657
760.11	-0.705
760.42	-0.666
760.73	-0.672
761.05	-0.727
761.36	-0.704
761.67	-0.743
761.99	-0.673
762.30	-0.678
762.61	-0.682
762.92	-0.711
763.24	-0.658
763.55	-0.690
763.86	-0.645
764.18	-0.641
764.49	-0.650
764.80	-0.681
765.11	-0.613
765.43	-0.694
765.74	-0.692
766.05	-0.639
766.36	-0.659
766.68	-0.641
766.99	-0.632
767.30	-0.657
767.61	-0.638
767.93	-0.672
768.24	-0.639
768.55	-0.709
768.86	-0.616
769.17	-0.704
769.49	-0.687
769.80	-0.663
770.11	-0.696
770.42	-0.692
770.73	-0.697
771.04	-0.626
771.36	-0.704
771.67	-0.639
771.98	-0.674
772.29	-0.655
772.60	-0.671
772.91	-0.696
773.22	-0.671
773.54	-0.705
773.85	-0.689
774.16	-0.717
774.47	-0.676
774.78	-0.746
775.09	-0.685
775.40	-0.712
775.71	-0.695
776.02	-0.690
776.33	-0.665
776.64	-0.718
776.96	-0.698
777.27	-0.758
777.58	-0.739
777.89	-0.697
778.20	-0.693
778.51	-0.775
778.82	-0.809
779.13	-0.783
779.44	-0.791
779.75	-0.717
780.06	-0.782
780.37	-0.752
780.68	-0.791
780.99	-0.773
781.30	-0.761
781.61	-0.762
781.92	-0.781
782.23	-0.871
782.54	-0.777
782.85	-0.879
783.16	-0.801
783.47	-0.801
783.78	-0.885
784.08	-0.910
784.39	-0.862
784.70	-0.863
785.01	-0.866
785.32	-0.917
785.63	-0.923
785.94	-0.828
786.25	-0.830
786.56	-0.917
786.87	-0.947
787.18	-0.881
787.48	-0.909
787.79	-0.892
788.10	-0.948
788.41	-0.938
788.72	-0.947
789.03	-1.045
789.34	-0.939
789.64	-0.975
789.95	-1.039
790.26	-1.039
790.57	-0.814
790.88	-1.092
791.19	-0.998
791.49	-1.115
791.80	-1.083
792.11	-1.057
792.42	-1.125
792.73	-1.094
793.03	-1.104
793.34	-1.092
793.65	-1.169
793.96	-1.167
794.27	-1.246
794.57	-1.166
794.88	-1.099
795.19	-1.125
795.50	-1.267
795.80	-1.185
796.11	-1.201
796.42	-1.307
796.72	-1.198
797.03	-1.227
797.34	-1.323
797.65	-1.377
797.95	-1.331
798.26	-1.329
798.57	-1.239
798.87	-1.312
799.18	-1.362
799.49	-1.465
799.79	-1.454
800.10	-1.297
800.41	-1.478
800.71	-1.403
801.02	-1.487
801.33	-1.457
801.63	-1.418
801.94	-1.567
802.24	-1.591
802.55	-1.632
802.86	-1.601
803.16	-1.509
803.47	-1.520
803.77	-1.689
804.08	-1.535
804.39	-1.716
804.69	-1.605
805.00	-1.674
805.30	-1.680
805.61	-1.763
805.91	-1.660
806.22	-1.702
806.53	-1.822
806.83	-1.711
807.14	-1.540
807.44	-1.803
807.75	-1.784
808.05	-1.887
808.36	-1.993
808.66	-1.904
808.97	-1.924
809.27	-1.792
809.58	-1.974
809.88	-1.890
810.19	-2.067
810.49	-2.130
810.80	-1.969
811.10	-1.959
811.41	-2.009
811.71	-1.990
812.01	-1.917
812.32	-2.017
812.62	-2.189
812.93	-2.276
813.23	-2.206
813.54	-2.042
813.84	-2.317
814.14	-2.115
814.45	-2.342
814.75	-2.463
815.06	-2.433
815.36	-2.409
815.66	-2.583
815.97	-2.541
816.27	-2.565
816.58	-2.471
816.88	-2.726
817.18	-2.720
817.49	-2.459
817.79	-2.435
818.09	-2.596
818.40	-2.764
818.70	-2.676
819.00	-2.661
819.31	-2.741
819.61	-2.885
819.91	-2.876
820.21	-2.872
820.52	-2.941
820.82	-2.904
821.12	-3.088
821.43	-3.106
821.73	-2.992
822.03	-2.944
822.33	-2.854
822.64	-3.041
822.94	-3.294
823.24	-3.321
823.54	-3.504
823.85	-3.397
824.15	-3.834
824.45	-3.192
824.75	-3.704
825.05	-3.489
825.36	-3.686
825.66	-4.077
825.96	-4.028
826.26	-3.835
826.56	-3.859
826.87	-3.815
827.17	-4.055
827.47	-3.901
827.77	-4.091
828.07	-3.903
828.37	-4.261
828.67	-4.265
828.98	-4.286
829.28	-4.771
829.58	-4.687
829.88	-4.555
830.18	-4.748
830.48	-4.826
830.78	-4.997
831.08	-4.765
831.38	-5.317
831.69	-5.151
831.99	-5.605
832.29	-5.339
832.59	-5.819
832.89	-5.346
833.19	-5.974
833.49	-5.856
833.79	-6.359
834.09	-6.600
834.39	-5.932
834.69	-6.219
834.99	-6.628
835.29	-6.386
835.59	-6.945
835.89	-7.203
836.19	-6.961
836.49	-7.896
836.79	-7.471
837.09	-7.396
837.39	-8.020
837.69	-8.098
837.99	-8.192
838.29	-8.290
838.59	-8.531
838.89	-9.311
839.19	-9.733
839.49	-8.030
839.79	-9.557
840.09	-10.567
840.39	-10.003
840.68	-9.600
840.98	-11.241
841.28	-10.667
841.58	-11.525
841.88	-11.350
842.18	-10.532
842.48	-10.647
842.78	-12.141
843.08	-12.108
843.37	-11.906
843.67	-11.596
843.97	-13.414
844.27	-13.453
844.57	-14.887
844.87	-14.439
845.16	-14.176
845.46	-15.379
845.76	-14.134
846.06	-15.438
846.36	-16.624
846.66	-15.466
846.95	-16.414
847.25	-17.269
847.55	-17.786
847.85	-16.764
848.14	-18.628
848.44	-17.603
848.74	-18.126
849.04	-21.195
849.33	-20.042
849.63	-19.797
849.93	-20.984
850.23	-21.760
850.52	-22.541
850.82	-22.483
851.12	-24.476
851.42	-24.408
851.71	-24.978
852.01	-25.409
852.31	-25.763
852.60	-27.256
852.90	-29.020
853.20	-30.023
853.49	-27.902
853.79	-30.764
854.09	-28.459
854.38	-31.856
854.68	-33.653
854.98	-30.388
855.27	-34.554
855.57	-32.251
855.86	-32.605
856.16	-31.116
856.46	-35.324
856.75	-34.503
857.05	-34.204
857.34	-39.229
857.64	-34.580
857.94	-36.633
858.23	-38.403
858.53	-37.468
858.82	-42.110
859.12	-35.309
859.41	-37.527
859.71	-36.157
860.01	-41.582
860.30	-38.101
860.60	-36.995
860.89	-38.163
861.19	-33.764
861.48	-38.773
861.78	-41.229
862.07	-40.433
862.37	-36.863
862.66	-36.324
862.96	-37.763
863.25	-39.512
863.55	-40.739
863.84	-37.212
864.13	-38.256
864.43	-40.437
864.72	-38.584
865.02	-39.899
865.31	-39.698
865.61	-34.541
865.90	-40.985
866.19	-37.648
866.49	-38.580
866.78	-38.881
867.08	-35.125
867.37	-39.075
867.66	-37.315
867.96	-40.385
868.25	-37.075
868.55	-35.833
868.84	-44.862
869.13	-39.752
869.43	-45.640
869.72	-38.969
870.01	-41.319
870.31	-41.113
870.60	-41.952
870.89	-43.782
871.19	-41.961
871.48	-40.776
871.77	-38.866
872.07	-38.369
872.36	-39.549
872.65	-41.115
872.94	-39.766
873.24	-37.255
873.53	-40.533
873.82	-41.447
874.11	-36.066
874.41	-42.413
874.70	-37.112
>>>>>End Processed Spectral Data<<<<<
