SpectraSuite Data File
++++++++++++++++++++++++++++++++++++
Date: Tue Apr 07 18:47:03 BST 2015
User: mpfc3
Dark Spectrum Present: Yes
Reference Spectrum Present: Yes
Number of Sampled Component Spectra: 1
Spectrometers: USB2E3636
Integration Time (usec): 30000 (USB2E3636)
Spectra Averaged: 100 (USB2E3636)
Boxcar Smoothing: 0 (USB2E3636)
Correct for Electrical Dark: No (USB2E3636)
Strobe/Lamp Enabled: No (USB2E3636)
Correct for Detector Non-linearity: No (USB2E3636)
Correct for Stray Light: No (USB2E3636)
Number of Pixels in Processed Spectrum: 2048
>>>>>Begin Processed Spectral Data<<<<<
180.28	0.000
180.65	2059.459
181.02	1055.224
181.39	756.842
181.77	775.248
182.14	1230.000
182.51	2513.793
182.88	978.082
183.25	1386.538
183.63	1207.143
184.00	944.444
184.37	1633.333
184.74	1840.541
185.11	2574.074
185.49	829.412
185.86	1060.000
186.23	1226.786
186.60	1315.000
186.97	675.229
187.35	1826.190
187.72	588.462
188.09	925.333
188.46	2114.286
188.83	584.677
189.20	-226.667
189.58	-33.729
189.95	-30.892
190.32	-32.072
190.69	-28.587
191.06	-36.487
191.43	-31.657
191.81	-30.027
192.18	-27.827
192.55	-33.429
192.92	-30.295
193.29	-30.988
193.66	-34.753
194.03	-29.372
194.41	-30.457
194.78	-32.370
195.15	-31.268
195.52	-29.691
195.89	-29.512
196.26	-32.269
196.63	-29.333
197.01	-30.504
197.38	-32.114
197.75	-34.596
198.12	-32.623
198.49	-33.127
198.86	-30.917
199.23	-30.756
199.60	-33.082
199.98	-29.608
200.35	-29.038
200.72	-34.469
201.09	-31.641
201.46	-33.657
201.83	-31.700
202.20	-35.294
202.57	-31.074
202.94	-34.586
203.31	-33.863
203.69	-34.524
204.06	-31.976
204.43	-36.126
204.80	-32.395
205.17	-33.063
205.54	-34.739
205.91	-34.051
206.28	-29.455
206.65	-30.000
207.02	-34.296
207.39	-31.803
207.76	-32.134
208.14	-31.803
208.51	-31.916
208.88	-31.376
209.25	-35.053
209.62	-34.382
209.99	-33.646
210.36	-36.916
210.73	-34.127
211.10	-35.918
211.47	-37.408
211.84	-32.173
212.21	-35.494
212.58	-36.358
212.95	-35.579
213.32	-31.891
213.69	-36.809
214.06	-35.505
214.43	-39.648
214.80	-31.273
215.17	-36.381
215.55	-35.706
215.92	-31.176
216.29	-36.910
216.66	-38.219
217.03	-35.096
217.40	-38.101
217.77	-36.506
218.14	-32.935
218.51	-35.812
218.88	-35.268
219.25	-33.375
219.62	-33.077
219.99	-34.148
220.36	-40.853
220.73	-31.479
221.10	-37.434
221.47	-36.545
221.84	-40.405
222.21	-35.328
222.58	-38.003
222.95	-36.480
223.32	-42.310
223.69	-41.917
224.06	-42.994
224.43	-39.838
224.80	-39.652
225.17	-43.215
225.54	-41.361
225.91	-38.178
226.27	-21.196
226.64	-41.313
227.01	-44.407
227.38	-40.099
227.75	-38.870
228.12	-37.870
228.49	-36.604
228.86	-44.794
229.23	-42.244
229.60	-38.537
229.97	-42.169
230.34	-43.940
230.71	-40.877
231.08	-45.397
231.45	-38.342
231.82	-42.337
232.19	-40.733
232.56	-43.370
232.93	-46.298
233.30	-39.415
233.66	-51.347
234.03	-45.575
234.40	-41.397
234.77	-41.707
235.14	-44.485
235.51	-41.031
235.88	-42.038
236.25	-41.972
236.62	-47.464
236.99	-43.450
237.36	-41.051
237.73	-38.092
238.09	-39.240
238.46	-42.695
238.83	-43.793
239.20	-41.304
239.57	-41.202
239.94	-44.286
240.31	-42.605
240.68	-46.358
241.05	-45.630
241.41	-38.672
241.78	-44.509
242.15	-44.709
242.52	-42.567
242.89	-46.636
243.26	-44.617
243.63	-44.198
244.00	-46.882
244.36	-46.148
244.73	-46.142
245.10	-48.547
245.47	-47.063
245.84	-44.790
246.21	-46.976
246.58	-45.397
246.94	-44.836
247.31	-40.369
247.68	-44.190
248.05	-42.727
248.42	-41.213
248.79	-41.981
249.15	-43.142
249.52	-48.249
249.89	-44.833
250.26	-48.668
250.63	-46.661
251.00	-48.911
251.36	-53.115
251.73	-51.537
252.10	-48.348
252.47	-48.052
252.84	-50.700
253.20	-51.305
253.57	-49.474
253.94	-42.477
254.31	-50.082
254.68	-48.798
255.05	-45.124
255.41	-55.097
255.78	-47.578
256.15	-52.927
256.52	-50.998
256.88	-55.256
257.25	-45.820
257.62	-56.160
257.99	-51.846
258.36	-51.474
258.72	-50.766
259.09	-51.855
259.46	-41.890
259.83	-47.871
260.19	-51.652
260.56	-50.778
260.93	-52.233
261.30	-47.646
261.67	-50.945
262.03	-48.653
262.40	-49.094
262.77	-46.185
263.14	-50.864
263.50	-46.745
263.87	-45.339
264.24	-54.002
264.61	-53.853
264.97	-51.253
265.34	-46.573
265.71	-51.399
266.07	-47.516
266.44	-50.123
266.81	-49.631
267.18	-54.508
267.54	-45.933
267.91	-53.571
268.28	-51.733
268.64	-43.920
269.01	-42.663
269.38	-52.976
269.75	-47.756
270.11	-40.000
270.48	-45.167
270.85	-49.272
271.21	-48.345
271.58	-59.603
271.95	-50.873
272.32	-46.423
272.68	-54.586
273.05	-49.429
273.42	-53.520
273.78	-46.471
274.15	-45.894
274.52	-57.825
274.88	-56.351
275.25	-55.546
275.62	-48.485
275.98	-45.693
276.35	-46.115
276.72	-63.237
277.08	-46.265
277.45	-46.095
277.82	-47.939
278.18	-53.114
278.55	-50.174
278.92	-53.511
279.28	-49.356
279.65	-41.976
280.01	-52.544
280.38	-49.108
280.75	-48.291
281.11	-51.563
281.48	-47.673
281.85	-50.305
282.21	-51.973
282.58	-45.753
282.95	-44.773
283.31	-52.906
283.68	-47.643
284.04	-47.328
284.41	-56.239
284.78	-43.497
285.14	-50.212
285.51	-46.221
285.87	-49.319
286.24	-44.276
286.61	-54.570
286.97	-53.058
287.34	-46.173
287.70	-43.095
288.07	-46.179
288.44	-51.273
288.80	-52.032
289.17	-48.024
289.53	-61.032
289.90	-46.423
290.26	-53.106
290.63	-43.931
291.00	-48.242
291.36	-48.768
291.73	-50.292
292.09	-48.390
292.46	-40.341
292.82	-50.911
293.19	-54.737
293.56	-50.580
293.92	-45.175
294.29	-55.122
294.65	-46.893
295.02	-48.267
295.38	-49.874
295.75	-52.632
296.11	-48.958
296.48	-48.985
296.84	-46.408
297.21	-49.302
297.57	-56.640
297.94	-50.043
298.30	-40.909
298.67	-47.980
299.04	-52.931
299.40	-51.109
299.77	-43.171
300.13	-49.632
300.50	-44.058
300.86	-47.262
301.23	-43.207
301.59	-52.729
301.96	-47.087
302.32	-40.962
302.69	-51.455
303.05	-52.797
303.42	-49.958
303.78	-48.053
304.14	-42.463
304.51	-50.769
304.87	-46.464
305.24	-42.601
305.60	-47.716
305.97	-43.876
306.33	-48.696
306.70	-52.000
307.06	-47.232
307.43	-40.985
307.79	-43.502
308.16	-40.769
308.52	-53.469
308.88	-49.837
309.25	-44.969
309.61	-42.159
309.98	-42.413
310.34	-44.029
310.71	-48.339
311.07	-41.271
311.44	-50.251
311.80	-44.863
312.16	-39.742
312.53	-45.592
312.89	-43.837
313.26	-41.603
313.62	-39.175
313.98	-45.601
314.35	-39.507
314.71	-36.286
315.08	-53.934
315.44	-41.294
315.80	-36.645
316.17	-45.489
316.53	-39.093
316.90	-43.269
317.26	-38.575
317.62	-39.911
317.99	-39.050
318.35	-40.690
318.72	-38.617
319.08	-34.762
319.44	-36.533
319.81	-39.458
320.17	-34.288
320.53	-38.584
320.90	-39.756
321.26	-38.434
321.62	-34.012
321.99	-36.921
322.35	-37.177
322.72	-29.963
323.08	-35.710
323.44	-33.697
323.81	-34.365
324.17	-34.085
324.53	-36.629
324.90	-38.365
325.26	-33.977
325.62	-33.603
325.99	-39.761
326.35	-29.191
326.71	-28.173
327.08	-34.696
327.44	-30.340
327.80	-30.261
328.16	-30.608
328.53	-31.582
328.89	-33.048
329.25	-30.294
329.62	-27.458
329.98	-26.374
330.34	-26.591
330.71	-26.135
331.07	-29.959
331.43	-30.055
331.79	-27.756
332.16	-27.676
332.52	-26.379
332.88	-25.274
333.24	-25.372
333.61	-23.707
333.97	-24.806
334.33	-21.279
334.70	-19.886
335.06	-22.024
335.42	-25.390
335.78	-23.805
336.15	-19.485
336.51	-20.232
336.87	-25.000
337.23	-19.023
337.60	-23.941
337.96	-18.491
338.32	-20.275
338.68	-16.397
339.04	-18.434
339.41	-20.690
339.77	-21.867
340.13	-21.460
340.49	-19.856
340.86	-19.914
341.22	-18.574
341.58	-17.277
341.94	-17.782
342.30	-17.083
342.67	-14.955
343.03	-15.826
343.39	-16.082
343.75	-16.362
344.11	-15.903
344.48	-17.899
344.84	-17.074
345.20	-15.202
345.56	-15.574
345.92	-15.638
346.28	-12.963
346.65	-13.788
347.01	-14.820
347.37	-14.032
347.73	-14.059
348.09	-15.617
348.45	-14.159
348.82	-13.062
349.18	-11.073
349.54	-13.630
349.90	-13.005
350.26	-12.819
350.62	-11.376
350.98	-11.440
351.35	-12.326
351.71	-13.281
352.07	-11.027
352.43	-11.632
352.79	-11.979
353.15	-11.068
353.51	-11.557
353.87	-10.316
354.24	-9.805
354.60	-10.080
354.96	-10.214
355.32	-10.492
355.68	-10.547
356.04	-8.234
356.40	-9.988
356.76	-9.215
357.12	-10.593
357.48	-9.798
357.85	-9.541
358.21	-8.150
358.57	-9.522
358.93	-9.113
359.29	-8.135
359.65	-9.254
360.01	-8.952
360.37	-8.660
360.73	-7.930
361.09	-7.823
361.45	-7.760
361.81	-7.108
362.17	-7.536
362.53	-7.111
362.89	-7.589
363.25	-7.547
363.62	-7.530
363.98	-6.980
364.34	-7.430
364.70	-6.498
365.06	-7.391
365.42	-6.861
365.78	-6.479
366.14	-6.398
366.50	-6.317
366.86	-6.592
367.22	-5.771
367.58	-6.292
367.94	-5.470
368.30	-5.184
368.66	-5.505
369.02	-6.013
369.38	-5.304
369.74	-4.379
370.10	-5.007
370.46	-5.284
370.82	-5.459
371.18	-4.383
371.54	-4.772
371.90	-5.083
372.26	-4.604
372.62	-4.517
372.98	-4.555
373.33	-4.886
373.69	-4.428
374.05	-4.112
374.41	-4.756
374.77	-4.230
375.13	-3.556
375.49	-4.060
375.85	-3.583
376.21	-3.355
376.57	-3.642
376.93	-3.694
377.29	-3.067
377.65	-3.202
378.01	-3.392
378.37	-2.961
378.73	-2.678
379.08	-3.001
379.44	-2.933
379.80	-2.853
380.16	-2.379
380.52	-2.194
380.88	-1.607
381.24	-1.539
381.60	-2.174
381.96	-1.329
382.32	-1.498
382.67	-1.026
383.03	-1.635
383.39	-0.561
383.75	-1.307
384.11	-0.834
384.47	-0.737
384.83	-0.852
385.19	-1.006
385.54	-0.790
385.90	-0.887
386.26	0.000
386.62	0.023
386.98	0.105
387.34	-0.097
387.70	0.125
388.05	0.222
388.41	0.720
388.77	0.456
389.13	0.483
389.49	0.776
389.85	1.279
390.20	0.888
390.56	1.391
390.92	1.465
391.28	1.381
391.64	1.905
391.99	2.010
392.35	2.049
392.71	2.261
393.07	1.983
393.43	2.388
393.78	2.463
394.14	3.008
394.50	2.966
394.86	3.171
395.22	2.892
395.57	3.070
395.93	3.351
396.29	3.335
396.65	3.655
397.00	4.083
397.36	4.224
397.72	3.917
398.08	4.594
398.43	4.224
398.79	4.518
399.15	4.826
399.51	4.949
399.86	5.228
400.22	5.058
400.58	5.376
400.94	5.639
401.29	6.028
401.65	6.156
402.01	6.271
402.37	5.782
402.72	6.627
403.08	6.392
403.44	6.742
403.79	6.378
404.15	6.887
404.51	6.800
404.86	7.568
405.22	7.314
405.58	7.497
405.94	7.687
406.29	7.869
406.65	7.846
407.01	8.035
407.36	8.198
407.72	8.305
408.08	8.375
408.43	8.440
408.79	8.719
409.15	9.101
409.50	9.123
409.86	8.945
410.22	9.622
410.57	9.192
410.93	9.617
411.29	10.103
411.64	9.931
412.00	10.106
412.35	10.260
412.71	10.395
413.07	10.789
413.42	10.558
413.78	11.007
414.14	11.034
414.49	11.071
414.85	11.135
415.20	11.560
415.56	11.681
415.92	11.670
416.27	11.587
416.63	12.068
416.98	12.004
417.34	12.182
417.70	12.479
418.05	12.404
418.41	12.858
418.76	12.725
419.12	12.483
419.47	13.007
419.83	13.266
420.19	13.136
420.54	13.275
420.90	13.261
421.25	13.541
421.61	13.764
421.96	13.703
422.32	14.061
422.67	14.114
423.03	14.072
423.39	14.270
423.74	14.451
424.10	14.570
424.45	14.779
424.81	14.913
425.16	14.804
425.52	15.229
425.87	15.232
426.23	15.431
426.58	15.445
426.94	15.633
427.29	15.843
427.65	15.544
428.00	15.914
428.36	15.865
428.71	15.948
429.07	16.149
429.42	16.346
429.78	16.493
430.13	16.589
430.49	16.655
430.84	16.860
431.19	16.822
431.55	17.217
431.90	17.024
432.26	17.189
432.61	17.746
432.97	17.690
433.32	17.543
433.68	17.585
434.03	17.714
434.39	17.851
434.74	17.999
435.09	18.192
435.45	18.070
435.80	18.229
436.16	18.232
436.51	18.462
436.86	18.609
437.22	18.793
437.57	18.730
437.93	18.998
438.28	18.996
438.63	19.057
438.99	19.171
439.34	19.546
439.70	19.583
440.05	19.642
440.40	19.597
440.76	19.769
441.11	19.703
441.47	19.725
441.82	19.929
442.17	20.148
442.53	20.115
442.88	20.246
443.23	20.212
443.59	20.331
443.94	20.516
444.29	20.614
444.65	20.695
445.00	20.895
445.35	20.853
445.71	20.940
446.06	20.994
446.41	21.083
446.77	21.132
447.12	21.420
447.47	21.513
447.83	21.526
448.18	21.609
448.53	21.728
448.89	21.733
449.24	21.726
449.59	21.995
449.94	22.014
450.30	22.042
450.65	22.095
451.00	22.240
451.36	22.376
451.71	22.411
452.06	22.525
452.41	22.568
452.77	22.761
453.12	22.897
453.47	22.852
453.82	23.103
454.18	22.975
454.53	23.206
454.88	23.279
455.23	23.493
455.59	23.383
455.94	23.472
456.29	23.739
456.64	23.709
457.00	23.837
457.35	23.864
457.70	23.945
458.05	24.061
458.40	24.342
458.76	24.227
459.11	24.247
459.46	24.433
459.81	24.313
460.16	24.405
460.52	24.737
460.87	24.712
461.22	24.814
461.57	24.909
461.92	25.110
462.28	24.996
462.63	25.237
462.98	25.163
463.33	25.389
463.68	25.367
464.03	25.563
464.38	25.444
464.74	25.542
465.09	25.689
465.44	25.889
465.79	25.778
466.14	25.865
466.49	25.989
466.84	26.112
467.20	26.129
467.55	26.073
467.90	26.287
468.25	26.379
468.60	26.346
468.95	26.420
469.30	26.479
469.65	26.449
470.00	26.649
470.36	26.609
470.71	26.728
471.06	26.713
471.41	26.867
471.76	26.812
472.11	26.823
472.46	26.905
472.81	26.936
473.16	26.970
473.51	26.882
473.86	26.984
474.21	27.057
474.56	27.079
474.91	27.104
475.26	27.042
475.62	27.167
475.97	27.081
476.32	27.158
476.67	27.219
477.02	27.163
477.37	27.165
477.72	27.284
478.07	27.226
478.42	27.230
478.77	27.143
479.12	27.238
479.47	27.167
479.82	27.346
480.17	27.263
480.52	27.177
480.87	27.177
481.22	27.187
481.57	27.281
481.92	27.193
482.27	27.227
482.62	27.154
482.97	27.158
483.32	27.231
483.67	27.190
484.02	27.260
484.36	27.212
484.71	27.268
485.06	27.123
485.41	27.222
485.76	27.272
486.11	27.246
486.46	27.243
486.81	27.351
487.16	27.445
487.51	27.408
487.86	27.484
488.21	27.556
488.56	27.620
488.91	27.607
489.25	27.728
489.60	27.771
489.95	27.849
490.30	27.815
490.65	27.993
491.00	28.056
491.35	28.016
491.70	28.154
492.05	28.240
492.39	28.224
492.74	28.370
493.09	28.496
493.44	28.430
493.79	28.661
494.14	28.697
494.49	28.746
494.83	28.787
495.18	28.947
495.53	28.974
495.88	29.098
496.23	29.156
496.58	29.170
496.92	29.315
497.27	29.412
497.62	29.482
497.97	29.581
498.32	29.655
498.67	29.752
499.01	29.802
499.36	29.875
499.71	30.006
500.06	30.002
500.41	30.176
500.75	30.210
501.10	30.295
501.45	30.325
501.80	30.372
502.14	30.426
502.49	30.511
502.84	30.528
503.19	30.614
503.53	30.708
503.88	30.715
504.23	30.757
504.58	30.894
504.92	30.923
505.27	30.890
505.62	31.001
505.97	30.975
506.31	31.040
506.66	31.066
507.01	31.137
507.36	31.124
507.70	31.160
508.05	31.132
508.40	31.115
508.74	31.151
509.09	31.114
509.44	31.114
509.79	31.119
510.13	31.127
510.48	31.071
510.83	31.110
511.17	31.073
511.52	31.052
511.87	31.057
512.21	30.989
512.56	31.028
512.91	31.087
513.25	31.128
513.60	31.202
513.95	31.182
514.29	31.192
514.64	31.356
514.98	31.329
515.33	31.347
515.68	31.466
516.02	31.487
516.37	31.515
516.72	31.492
517.06	31.658
517.41	31.727
517.75	31.699
518.10	31.727
518.45	31.810
518.79	31.721
519.14	31.822
519.48	31.876
519.83	31.881
520.18	31.986
520.52	31.929
520.87	32.040
521.21	31.978
521.56	32.074
521.90	32.043
522.25	32.069
522.60	31.992
522.94	32.072
523.29	32.106
523.63	32.080
523.98	32.115
524.32	32.169
524.67	32.059
525.01	32.035
525.36	32.075
525.70	32.004
526.05	32.029
526.39	32.011
526.74	31.943
527.08	31.913
527.43	31.818
527.77	31.765
528.12	31.759
528.46	31.634
528.81	31.561
529.15	31.596
529.50	31.462
529.84	31.357
530.19	31.326
530.53	31.208
530.88	31.131
531.22	30.943
531.57	30.843
531.91	30.690
532.26	30.545
532.60	30.441
532.94	30.361
533.29	30.188
533.63	30.058
533.98	29.901
534.32	29.697
534.67	29.436
535.01	29.288
535.35	29.081
535.70	28.859
536.04	28.733
536.39	28.441
536.73	28.239
537.07	27.990
537.42	27.860
537.76	27.612
538.11	27.415
538.45	27.160
538.79	26.929
539.14	26.792
539.48	26.531
539.82	26.441
540.17	26.121
540.51	25.988
540.85	25.810
541.20	25.624
541.54	25.472
541.89	25.324
542.23	25.144
542.57	25.056
542.92	24.922
543.26	24.814
543.60	24.773
543.94	24.704
544.29	24.610
544.63	24.586
544.97	24.556
545.32	24.459
545.66	24.480
546.00	24.423
546.35	24.463
546.69	24.502
547.03	24.464
547.37	24.522
547.72	24.554
548.06	24.620
548.40	24.692
548.75	24.743
549.09	24.797
549.43	24.901
549.77	24.947
550.12	25.077
550.46	25.127
550.80	25.256
551.14	25.384
551.49	25.448
551.83	25.664
552.17	25.837
552.51	25.950
552.85	26.150
553.20	26.345
553.54	26.471
553.88	26.728
554.22	26.823
554.56	27.083
554.91	27.404
555.25	27.640
555.59	27.825
555.93	28.119
556.27	28.358
556.62	28.635
556.96	28.910
557.30	29.176
557.64	29.371
557.98	29.688
558.32	29.924
558.67	30.213
559.01	30.516
559.35	30.740
559.69	31.001
560.03	31.247
560.37	31.609
560.71	31.856
561.05	32.089
561.40	32.274
561.74	32.574
562.08	32.811
562.42	33.116
562.76	33.280
563.10	33.481
563.44	33.607
563.78	33.912
564.12	34.097
564.46	34.248
564.81	34.374
565.15	34.553
565.49	34.739
565.83	34.873
566.17	34.939
566.51	35.075
566.85	35.201
567.19	35.201
567.53	35.294
567.87	35.478
568.21	35.520
568.55	35.511
568.89	35.638
569.23	35.568
569.57	35.599
569.91	35.587
570.25	35.570
570.59	35.627
570.93	35.678
571.27	35.552
571.61	35.572
571.95	35.552
572.29	35.471
572.63	35.462
572.97	35.349
573.31	35.230
573.65	35.170
573.99	35.066
574.33	34.956
574.67	34.895
575.01	34.770
575.35	34.646
575.69	34.564
576.03	34.486
576.37	34.306
576.71	34.188
577.05	34.051
577.39	33.896
577.73	33.728
578.06	33.580
578.40	33.424
578.74	33.313
579.08	33.018
579.42	32.839
579.76	32.578
580.10	32.425
580.44	32.302
580.78	32.090
581.12	31.949
581.45	31.648
581.79	31.438
582.13	31.293
582.47	31.045
582.81	30.873
583.15	30.719
583.49	30.526
583.83	30.333
584.16	30.198
584.50	29.963
584.84	29.917
585.18	29.749
585.52	29.588
585.86	29.388
586.19	29.212
586.53	29.077
586.87	28.979
587.21	28.764
587.55	28.554
587.88	28.525
588.22	28.324
588.56	28.059
588.90	27.875
589.24	27.698
589.57	27.489
589.91	27.216
590.25	26.991
590.59	26.809
590.92	26.620
591.26	26.302
591.60	26.122
591.94	25.853
592.27	25.600
592.61	25.329
592.95	25.042
593.29	24.761
593.62	24.416
593.96	24.163
594.30	23.762
594.64	23.438
594.97	23.088
595.31	22.735
595.65	22.293
595.98	21.917
596.32	21.502
596.66	21.036
597.00	20.561
597.33	20.080
597.67	19.572
598.01	19.062
598.34	18.613
598.68	18.101
599.02	17.679
599.35	17.227
599.69	16.786
600.03	16.348
600.36	16.013
600.70	15.604
601.03	15.228
601.37	14.890
601.71	14.574
602.04	14.233
602.38	13.989
602.72	13.668
603.05	13.383
603.39	13.093
603.72	12.802
604.06	12.469
604.40	12.203
604.73	11.911
605.07	11.577
605.40	11.262
605.74	11.005
606.08	10.724
606.41	10.393
606.75	10.086
607.08	9.784
607.42	9.461
607.75	9.162
608.09	8.844
608.42	8.555
608.76	8.268
609.10	7.943
609.43	7.630
609.77	7.351
610.10	7.085
610.44	6.780
610.77	6.503
611.11	6.197
611.44	5.943
611.78	5.695
612.11	5.460
612.45	5.183
612.78	4.935
613.12	4.695
613.45	4.482
613.79	4.262
614.12	4.067
614.46	3.899
614.79	3.666
615.13	3.529
615.46	3.358
615.79	3.152
616.13	3.045
616.46	2.907
616.80	2.779
617.13	2.648
617.47	2.556
617.80	2.461
618.13	2.333
618.47	2.260
618.80	2.138
619.14	2.070
619.47	2.011
619.81	1.930
620.14	1.873
620.47	1.792
620.81	1.759
621.14	1.693
621.47	1.640
621.81	1.583
622.14	1.521
622.48	1.476
622.81	1.463
623.14	1.411
623.48	1.366
623.81	1.340
624.14	1.279
624.48	1.254
624.81	1.247
625.14	1.226
625.48	1.213
625.81	1.188
626.14	1.168
626.48	1.158
626.81	1.151
627.14	1.188
627.48	1.183
627.81	1.182
628.14	1.230
628.47	1.205
628.81	1.253
629.14	1.269
629.47	1.336
629.81	1.330
630.14	1.389
630.47	1.411
630.80	1.493
631.14	1.560
631.47	1.618
631.80	1.702
632.13	1.778
632.47	1.867
632.80	1.966
633.13	2.115
633.46	2.219
633.79	2.313
634.13	2.478
634.46	2.607
634.79	2.765
635.12	2.901
635.45	3.116
635.79	3.298
636.12	3.508
636.45	3.707
636.78	3.915
637.11	4.175
637.45	4.401
637.78	4.593
638.11	4.886
638.44	5.139
638.77	5.381
639.10	5.637
639.44	5.964
639.77	6.200
640.10	6.508
640.43	6.786
640.76	7.099
641.09	7.393
641.42	7.663
641.75	7.945
642.08	8.255
642.42	8.541
642.75	8.849
643.08	9.146
643.41	9.438
643.74	9.725
644.07	9.994
644.40	10.294
644.73	10.561
645.06	10.802
645.39	11.089
645.72	11.367
646.05	11.621
646.38	11.866
646.72	12.117
647.05	12.326
647.38	12.574
647.71	12.745
648.04	12.893
648.37	13.104
648.70	13.273
649.03	13.362
649.36	13.544
649.69	13.656
650.02	13.734
650.35	13.829
650.68	13.859
651.01	13.918
651.34	13.907
651.67	13.906
652.00	13.906
652.33	13.830
652.66	13.718
652.99	13.612
653.31	13.478
653.64	13.292
653.97	13.166
654.30	12.971
654.63	12.737
654.96	12.412
655.29	12.166
655.62	11.891
655.95	11.637
656.28	11.362
656.61	11.064
656.94	10.698
657.27	10.442
657.60	10.132
657.92	9.849
658.25	9.541
658.58	9.301
658.91	8.990
659.24	8.765
659.57	8.498
659.90	8.286
660.23	8.066
660.55	7.847
660.88	7.642
661.21	7.405
661.54	7.220
661.87	7.005
662.20	6.803
662.52	6.623
662.85	6.405
663.18	6.263
663.51	6.080
663.84	5.895
664.16	5.745
664.49	5.604
664.82	5.420
665.15	5.265
665.48	5.148
665.80	4.991
666.13	4.855
666.46	4.779
666.79	4.623
667.12	4.517
667.44	4.383
667.77	4.305
668.10	4.177
668.43	4.080
668.75	3.984
669.08	3.918
669.41	3.800
669.73	3.713
670.06	3.679
670.39	3.584
670.72	3.501
671.04	3.442
671.37	3.379
671.70	3.342
672.02	3.268
672.35	3.250
672.68	3.207
673.00	3.143
673.33	3.107
673.66	3.060
673.98	3.033
674.31	3.012
674.64	2.968
674.96	2.937
675.29	2.927
675.62	2.899
675.94	2.853
676.27	2.858
676.60	2.834
676.92	2.826
677.25	2.793
677.58	2.805
677.90	2.818
678.23	2.770
678.55	2.764
678.88	2.760
679.21	2.744
679.53	2.718
679.86	2.725
680.18	2.683
680.51	2.686
680.83	2.614
681.16	2.600
681.49	2.556
681.81	2.592
682.14	2.557
682.46	2.537
682.79	2.496
683.11	2.474
683.44	2.460
683.76	2.464
684.09	2.450
684.41	2.400
684.74	2.410
685.06	2.388
685.39	2.356
685.71	2.347
686.04	2.310
686.36	2.295
686.69	2.288
687.01	2.291
687.34	2.231
687.66	2.238
687.99	2.171
688.31	2.175
688.64	2.191
688.96	2.116
689.29	2.132
689.61	2.098
689.93	2.083
690.26	2.035
690.58	1.980
690.91	1.948
691.23	1.951
691.56	1.871
691.88	1.795
692.20	1.778
692.53	1.703
692.85	1.685
693.18	1.638
693.50	1.574
693.82	1.501
694.15	1.457
694.47	1.390
694.79	1.311
695.12	1.264
695.44	1.192
695.76	1.141
696.09	1.109
696.41	1.034
696.73	0.926
697.06	0.879
697.38	0.783
697.70	0.740
698.03	0.695
698.35	0.620
698.67	0.576
699.00	0.517
699.32	0.451
699.64	0.397
699.97	0.345
700.29	0.295
700.61	0.271
700.93	0.232
701.26	0.210
701.58	0.172
701.90	0.113
702.22	0.099
702.55	0.039
702.87	0.035
703.19	-0.001
703.51	-0.013
703.84	-0.028
704.16	-0.040
704.48	-0.038
704.80	-0.112
705.13	-0.103
705.45	-0.126
705.77	-0.129
706.09	-0.113
706.41	-0.143
706.74	-0.178
707.06	-0.187
707.38	-0.187
707.70	-0.222
708.02	-0.234
708.34	-0.190
708.67	-0.223
708.99	-0.226
709.31	-0.256
709.63	-0.227
709.95	-0.237
710.27	-0.240
710.59	-0.272
710.92	-0.252
711.24	-0.215
711.56	-0.269
711.88	-0.311
712.20	-0.306
712.52	-0.299
712.84	-0.295
713.16	-0.269
713.48	-0.254
713.80	-0.307
714.12	-0.281
714.45	-0.331
714.77	-0.315
715.09	-0.309
715.41	-0.331
715.73	-0.379
716.05	-0.320
716.37	-0.359
716.69	-0.330
717.01	-0.404
717.33	-0.345
717.65	-0.399
717.97	-0.346
718.29	-0.349
718.61	-0.393
718.93	-0.388
719.25	-0.417
719.57	-0.349
719.89	-0.404
720.21	-0.419
720.53	-0.473
720.85	-0.483
721.17	-0.479
721.49	-0.449
721.81	-0.439
722.13	-0.485
722.45	-0.449
722.77	-0.503
723.09	-0.570
723.41	-0.520
723.72	-0.521
724.04	-0.502
724.36	-0.541
724.68	-0.657
725.00	-0.582
725.32	-0.516
725.64	-0.598
725.96	-0.606
726.28	-0.553
726.60	-0.590
726.91	-0.595
727.23	-0.659
727.55	-0.660
727.87	-0.691
728.19	-0.670
728.51	-0.734
728.83	-0.562
729.14	-0.635
729.46	-0.724
729.78	-0.769
730.10	-0.675
730.42	-0.817
730.74	-0.644
731.05	-0.787
731.37	-0.747
731.69	-0.819
732.01	-0.801
732.33	-0.722
732.64	-0.730
732.96	-0.740
733.28	-0.609
733.60	-0.783
733.92	-0.775
734.23	-0.787
734.55	-0.731
734.87	-0.817
735.19	-0.726
735.50	-0.851
735.82	-0.727
736.14	-0.872
736.45	-0.791
736.77	-0.779
737.09	-0.828
737.41	-0.783
737.72	-0.808
738.04	-0.777
738.36	-0.711
738.67	-0.757
738.99	-0.755
739.31	-0.781
739.63	-0.790
739.94	-0.809
740.26	-0.826
740.58	-0.823
740.89	-0.826
741.21	-0.766
741.52	-0.759
741.84	-0.756
742.16	-0.775
742.47	-0.665
742.79	-0.811
743.11	-0.719
743.42	-0.768
743.74	-0.628
744.05	-0.808
744.37	-0.744
744.69	-0.701
745.00	-0.751
745.32	-0.733
745.63	-0.701
745.95	-0.717
746.27	-0.670
746.58	-0.694
746.90	-0.625
747.21	-0.705
747.53	-0.650
747.84	-0.668
748.16	-0.667
748.47	-0.613
748.79	-0.698
749.10	-0.682
749.42	-0.698
749.74	-0.624
750.05	-0.700
750.37	-0.611
750.68	-0.726
751.00	-0.601
751.31	-0.621
751.62	-0.586
751.94	-0.627
752.25	-0.616
752.57	-0.578
752.88	-0.638
753.20	-0.561
753.51	-0.616
753.83	-0.578
754.14	-0.639
754.46	-0.594
754.77	-0.553
755.08	-0.581
755.40	-0.574
755.71	-0.587
756.03	-0.587
756.34	-0.564
756.66	-0.562
756.97	-0.560
757.28	-0.558
757.60	-0.551
757.91	-0.628
758.22	-0.527
758.54	-0.615
758.85	-0.609
759.17	-0.575
759.48	-0.555
759.79	-0.574
760.11	-0.552
760.42	-0.504
760.73	-0.611
761.05	-0.537
761.36	-0.573
761.67	-0.525
761.99	-0.529
762.30	-0.561
762.61	-0.503
762.92	-0.528
763.24	-0.485
763.55	-0.490
763.86	-0.554
764.18	-0.571
764.49	-0.502
764.80	-0.439
765.11	-0.535
765.43	-0.546
765.74	-0.508
766.05	-0.522
766.36	-0.534
766.68	-0.490
766.99	-0.534
767.30	-0.495
767.61	-0.506
767.93	-0.542
768.24	-0.464
768.55	-0.536
768.86	-0.542
769.17	-0.465
769.49	-0.578
769.80	-0.492
770.11	-0.503
770.42	-0.544
770.73	-0.538
771.04	-0.441
771.36	-0.542
771.67	-0.571
771.98	-0.488
772.29	-0.533
772.60	-0.555
772.91	-0.537
773.22	-0.602
773.54	-0.551
773.85	-0.512
774.16	-0.505
774.47	-0.507
774.78	-0.542
775.09	-0.601
775.40	-0.566
775.71	-0.557
776.02	-0.495
776.33	-0.582
776.64	-0.491
776.96	-0.544
777.27	-0.609
777.58	-0.583
777.89	-0.625
778.20	-0.643
778.51	-0.597
778.82	-0.652
779.13	-0.587
779.44	-0.582
779.75	-0.621
780.06	-0.632
780.37	-0.602
780.68	-0.609
780.99	-0.589
781.30	-0.617
781.61	-0.599
781.92	-0.590
782.23	-0.711
782.54	-0.651
782.85	-0.617
783.16	-0.684
783.47	-0.691
783.78	-0.653
784.08	-0.648
784.39	-0.653
784.70	-0.731
785.01	-0.748
785.32	-0.642
785.63	-0.624
785.94	-0.702
786.25	-0.708
786.56	-0.708
786.87	-0.725
787.18	-0.719
787.48	-0.714
787.79	-0.775
788.10	-0.721
788.41	-0.697
788.72	-0.776
789.03	-0.831
789.34	-0.773
789.64	-0.819
789.95	-0.907
790.26	-0.846
790.57	-0.726
790.88	-0.904
791.19	-0.805
791.49	-0.828
791.80	-0.826
792.11	-0.837
792.42	-0.934
792.73	-0.853
793.03	-0.956
793.34	-0.906
793.65	-0.934
793.96	-0.945
794.27	-0.842
794.57	-0.931
794.88	-0.967
795.19	-0.983
795.50	-0.914
795.80	-1.008
796.11	-1.002
796.42	-1.053
796.72	-1.109
797.03	-1.020
797.34	-0.992
797.65	-1.077
797.95	-0.992
798.26	-1.051
798.57	-1.078
798.87	-1.057
799.18	-0.982
799.49	-1.132
799.79	-1.116
800.10	-1.118
800.41	-1.195
800.71	-1.002
801.02	-1.228
801.33	-1.285
801.63	-1.144
801.94	-1.256
802.24	-1.261
802.55	-1.324
802.86	-1.262
803.16	-1.148
803.47	-1.442
803.77	-1.394
804.08	-1.188
804.39	-1.294
804.69	-1.311
805.00	-1.187
805.30	-1.430
805.61	-1.418
805.91	-1.426
806.22	-1.290
806.53	-1.433
806.83	-1.449
807.14	-1.257
807.44	-1.475
807.75	-1.473
808.05	-1.560
808.36	-1.452
808.66	-1.529
808.97	-1.639
809.27	-1.629
809.58	-1.401
809.88	-1.561
810.19	-1.537
810.49	-1.626
810.80	-1.596
811.10	-1.733
811.41	-1.878
811.71	-1.708
812.01	-1.607
812.32	-1.702
812.62	-1.718
812.93	-1.759
813.23	-1.623
813.54	-1.723
813.84	-1.918
814.14	-1.708
814.45	-1.720
814.75	-1.806
815.06	-1.639
815.36	-1.723
815.66	-1.944
815.97	-1.956
816.27	-1.838
816.58	-1.934
816.88	-1.911
817.18	-2.026
817.49	-1.870
817.79	-2.165
818.09	-2.037
818.40	-2.043
818.70	-2.201
819.00	-2.006
819.31	-2.225
819.61	-2.208
819.91	-2.211
820.21	-2.134
820.52	-2.408
820.82	-2.329
821.12	-2.355
821.43	-2.392
821.73	-2.308
822.03	-2.381
822.33	-2.442
822.64	-2.334
822.94	-2.572
823.24	-2.603
823.54	-2.542
823.85	-2.724
824.15	-2.590
824.45	-2.747
824.75	-2.904
825.05	-2.654
825.36	-2.807
825.66	-3.001
825.96	-2.989
826.26	-3.062
826.56	-3.165
826.87	-3.042
827.17	-2.943
827.47	-3.142
827.77	-3.351
828.07	-3.428
828.37	-3.247
828.67	-3.640
828.98	-3.092
829.28	-3.545
829.58	-3.449
829.88	-3.596
830.18	-3.419
830.48	-3.645
830.78	-3.889
831.08	-4.033
831.38	-4.202
831.69	-4.263
831.99	-4.249
832.29	-4.424
832.59	-4.660
832.89	-4.932
833.19	-4.761
833.49	-4.469
833.79	-5.014
834.09	-4.705
834.39	-4.930
834.69	-4.954
834.99	-4.655
835.29	-5.188
835.59	-5.302
835.89	-5.668
836.19	-5.801
836.49	-5.957
836.79	-5.942
837.09	-5.471
837.39	-6.202
837.69	-6.185
837.99	-5.969
838.29	-6.564
838.59	-7.207
838.89	-7.123
839.19	-6.839
839.49	-7.052
839.79	-7.669
840.09	-7.882
840.39	-7.778
840.68	-7.358
840.98	-8.752
841.28	-7.374
841.58	-7.445
841.88	-8.480
842.18	-8.796
842.48	-8.347
842.78	-8.153
843.08	-8.784
843.37	-9.127
843.67	-8.749
843.97	-9.140
844.27	-8.691
844.57	-10.396
844.87	-11.194
845.16	-10.748
845.46	-10.790
845.76	-9.986
846.06	-10.641
846.36	-11.556
846.66	-12.754
846.95	-11.253
847.25	-13.895
847.55	-12.107
847.85	-13.281
848.14	-11.989
848.44	-13.795
848.74	-13.322
849.04	-13.920
849.33	-15.304
849.63	-14.040
849.93	-15.943
850.23	-17.201
850.52	-16.404
850.82	-16.529
851.12	-17.223
851.42	-19.160
851.71	-18.208
852.01	-18.644
852.31	-18.569
852.60	-19.169
852.90	-20.639
853.20	-21.803
853.49	-20.174
853.79	-21.825
854.09	-21.881
854.38	-21.834
854.68	-20.108
854.98	-23.648
855.27	-23.494
855.57	-22.753
855.86	-24.057
856.16	-23.674
856.46	-23.865
856.75	-24.682
857.05	-24.771
857.34	-25.295
857.64	-21.562
857.94	-25.952
858.23	-26.805
858.53	-28.193
858.82	-27.466
859.12	-28.031
859.41	-26.639
859.71	-28.453
860.01	-27.773
860.30	-25.661
860.60	-27.491
860.89	-25.735
861.19	-26.381
861.48	-28.689
861.78	-30.495
862.07	-28.134
862.37	-24.387
862.66	-25.581
862.96	-26.890
863.25	-27.094
863.55	-30.317
863.84	-29.123
864.13	-30.296
864.43	-28.063
864.72	-30.522
865.02	-29.165
865.31	-28.053
865.61	-25.657
865.90	-30.033
866.19	-29.034
866.49	-27.983
866.78	-25.527
867.08	-27.243
867.37	-29.276
867.66	-30.017
867.96	-28.690
868.25	-27.337
868.55	-28.583
868.84	-30.627
869.13	-29.412
869.43	-27.965
869.72	-29.761
870.01	-29.163
870.31	-24.229
870.60	-31.282
870.89	-29.770
871.19	-28.589
871.48	-27.353
871.77	-31.985
872.07	-30.281
872.36	-28.776
872.65	-28.109
872.94	-26.656
873.24	-26.873
873.53	-28.365
873.82	-31.043
874.11	-29.493
874.41	-32.634
874.70	-30.746
>>>>>End Processed Spectral Data<<<<<
