SpectraSuite Data File
++++++++++++++++++++++++++++++++++++
Date: Tue Apr 07 18:30:14 BST 2015
User: mpfc3
Dark Spectrum Present: Yes
Reference Spectrum Present: Yes
Number of Sampled Component Spectra: 1
Spectrometers: USB2E3636
Integration Time (usec): 30000 (USB2E3636)
Spectra Averaged: 100 (USB2E3636)
Boxcar Smoothing: 0 (USB2E3636)
Correct for Electrical Dark: No (USB2E3636)
Strobe/Lamp Enabled: No (USB2E3636)
Correct for Detector Non-linearity: No (USB2E3636)
Correct for Stray Light: No (USB2E3636)
Number of Pixels in Processed Spectrum: 2048
>>>>>Begin Processed Spectral Data<<<<<
180.28	0.000
180.65	1129.730
181.02	662.687
181.39	538.947
181.77	488.119
182.14	755.000
182.51	1720.690
182.88	665.753
183.25	886.538
183.63	817.857
184.00	677.778
184.37	971.111
184.74	1294.595
185.11	1692.593
185.49	616.471
185.86	713.333
186.23	976.786
186.60	855.000
186.97	468.807
187.35	1376.190
187.72	373.846
188.09	641.333
188.46	1374.286
188.83	414.516
189.20	-152.424
189.58	-17.740
189.95	-16.134
190.32	-20.384
190.69	-14.617
191.06	-19.811
191.43	-17.543
191.81	-15.818
192.18	-15.854
192.55	-18.040
192.92	-22.401
193.29	-18.048
193.66	-20.159
194.03	-18.554
194.41	-20.925
194.78	-17.177
195.15	-17.859
195.52	-20.366
195.89	-17.196
196.26	-20.870
196.63	-18.676
197.01	-15.060
197.38	-19.224
197.75	-22.605
198.12	-17.209
198.49	-16.115
198.86	-14.270
199.23	-14.743
199.60	-18.540
199.98	-16.735
200.35	-15.155
200.72	-21.651
201.09	-17.857
201.46	-20.571
201.83	-19.088
202.20	-18.288
202.57	-16.715
202.94	-23.547
203.31	-20.554
203.69	-24.821
204.06	-24.130
204.43	-20.559
204.80	-18.438
205.17	-13.631
205.54	-20.071
205.91	-18.393
206.28	-16.572
206.65	-16.416
207.02	-18.476
207.39	-17.509
207.76	-20.144
208.14	-19.048
208.51	-21.083
208.88	-15.362
209.25	-17.794
209.62	-21.378
209.99	-16.295
210.36	-20.393
210.73	-18.821
211.10	-23.198
211.47	-17.971
211.84	-19.748
212.21	-20.062
212.58	-20.964
212.95	-13.061
213.32	-22.435
213.69	-18.684
214.06	-24.117
214.43	-25.236
214.80	-15.758
215.17	-22.257
215.55	-19.632
215.92	-16.508
216.29	-22.440
216.66	-21.027
217.03	-18.793
217.40	-23.669
217.77	-18.472
218.14	-20.781
218.51	-19.437
218.88	-20.442
219.25	-17.491
219.62	-19.808
219.99	-20.363
220.36	-25.598
220.73	-20.354
221.10	-21.447
221.47	-25.382
221.84	-22.585
222.21	-19.605
222.58	-23.995
222.95	-18.813
223.32	-26.863
223.69	-26.467
224.06	-25.290
224.43	-26.334
224.80	-23.711
225.17	-21.851
225.54	-25.150
225.91	-25.184
226.27	-7.243
226.64	-24.350
227.01	-24.079
227.38	-28.400
227.75	-22.192
228.12	-24.894
228.49	-20.568
228.86	-26.066
229.23	-22.576
229.60	-21.254
229.97	-27.711
230.34	-27.498
230.71	-21.994
231.08	-24.433
231.45	-19.744
231.82	-24.003
232.19	-24.965
232.56	-27.179
232.93	-28.397
233.30	-27.019
233.66	-27.620
234.03	-23.902
234.40	-25.198
234.77	-20.014
235.14	-24.191
235.51	-24.364
235.88	-27.389
236.25	-27.676
236.62	-29.296
236.99	-27.147
237.36	-27.202
237.73	-23.458
238.09	-24.462
238.46	-26.192
238.83	-32.521
239.20	-23.988
239.57	-24.547
239.94	-27.143
240.31	-27.373
240.68	-29.139
241.05	-28.074
241.41	-20.959
241.78	-25.600
242.15	-23.100
242.52	-21.465
242.89	-25.765
243.26	-26.956
243.63	-21.221
244.00	-28.775
244.36	-26.178
244.73	-27.610
245.10	-30.086
245.47	-25.602
245.84	-27.138
246.21	-25.923
246.58	-28.413
246.94	-26.702
247.31	-26.568
247.68	-28.976
248.05	-28.256
248.42	-22.706
248.79	-19.512
249.15	-26.284
249.52	-29.339
249.89	-29.571
250.26	-26.881
250.63	-25.744
251.00	-25.272
251.36	-31.230
251.73	-27.104
252.10	-27.961
252.47	-31.006
252.84	-29.218
253.20	-36.623
253.57	-26.559
253.94	-25.152
254.31	-29.489
254.68	-32.692
255.05	-27.632
255.41	-27.970
255.78	-26.094
256.15	-34.242
256.52	-28.093
256.88	-33.362
257.25	-27.208
257.62	-35.344
257.99	-27.517
258.36	-31.424
258.72	-32.877
259.09	-31.371
259.46	-25.984
259.83	-29.639
260.19	-28.203
260.56	-29.975
260.93	-33.867
261.30	-29.951
261.67	-32.732
262.03	-31.429
262.40	-26.853
262.77	-31.091
263.14	-25.103
263.50	-26.544
263.87	-26.215
264.24	-32.687
264.61	-31.922
264.97	-28.052
265.34	-28.737
265.71	-29.371
266.07	-28.365
266.44	-24.203
266.81	-25.021
267.18	-26.711
267.54	-24.651
267.91	-28.061
268.28	-28.300
268.64	-26.160
269.01	-24.083
269.38	-30.102
269.75	-26.926
270.11	-21.008
270.48	-28.838
270.85	-28.449
271.21	-28.733
271.58	-38.683
271.95	-26.268
272.32	-27.317
272.68	-32.716
273.05	-26.591
273.42	-29.432
273.78	-29.916
274.15	-27.134
274.52	-39.257
274.88	-32.310
275.25	-33.008
275.62	-33.506
275.98	-26.415
276.35	-31.245
276.72	-30.607
277.08	-28.755
277.45	-28.268
277.82	-31.034
278.18	-29.758
278.55	-32.840
278.92	-34.933
279.28	-30.472
279.65	-25.771
280.01	-31.842
280.38	-27.443
280.75	-31.795
281.11	-35.243
281.48	-24.571
281.85	-35.397
282.21	-29.160
282.58	-25.080
282.95	-20.910
283.31	-29.573
283.68	-31.431
284.04	-28.075
284.41	-29.086
284.78	-22.720
285.14	-32.285
285.51	-27.541
285.87	-32.198
286.24	-29.040
286.61	-38.441
286.97	-32.284
287.34	-27.932
287.70	-30.200
288.07	-27.445
288.44	-34.041
288.80	-31.979
289.17	-33.474
289.53	-34.875
289.90	-25.208
290.26	-36.570
290.63	-29.067
291.00	-25.184
291.36	-30.378
291.73	-28.107
292.09	-28.475
292.46	-26.786
292.82	-30.464
293.19	-32.456
293.56	-24.793
293.92	-23.960
294.29	-33.941
294.65	-28.169
295.02	-26.256
295.38	-31.715
295.75	-29.032
296.11	-32.465
296.48	-30.950
296.84	-30.508
297.21	-30.803
297.57	-37.819
297.94	-26.402
298.30	-20.893
298.67	-29.125
299.04	-29.397
299.40	-25.853
299.77	-22.920
300.13	-26.656
300.50	-26.516
300.86	-27.375
301.23	-24.803
301.59	-28.212
301.96	-31.877
302.32	-24.670
302.69	-22.943
303.05	-34.576
303.42	-35.249
303.78	-31.814
304.14	-23.520
304.51	-32.393
304.87	-25.740
305.24	-21.495
305.60	-28.059
305.97	-22.171
306.33	-30.193
306.70	-33.917
307.06	-29.782
307.43	-20.152
307.79	-24.541
308.16	-24.039
308.52	-29.442
308.88	-34.258
309.25	-23.899
309.61	-26.005
309.98	-23.596
310.34	-26.990
310.71	-29.983
311.07	-23.583
311.44	-31.187
311.80	-30.510
312.16	-24.088
312.53	-26.978
312.89	-28.274
313.26	-21.603
313.62	-24.620
313.98	-25.478
314.35	-21.733
314.71	-17.429
315.08	-30.405
315.44	-21.819
315.80	-19.726
316.17	-26.767
316.53	-20.326
316.90	-26.278
317.26	-22.116
317.62	-22.774
317.99	-26.102
318.35	-21.655
318.72	-25.070
319.08	-19.184
319.44	-23.066
319.81	-22.373
320.17	-19.388
320.53	-20.119
320.90	-21.002
321.26	-22.708
321.62	-17.991
321.99	-18.265
322.35	-20.013
322.72	-17.990
323.08	-18.512
323.44	-16.175
323.81	-16.867
324.17	-16.646
324.53	-22.450
324.90	-21.887
325.26	-15.570
325.62	-20.574
325.99	-20.854
326.35	-13.482
326.71	-15.424
327.08	-18.399
327.44	-16.676
327.80	-14.381
328.16	-16.192
328.53	-16.754
328.89	-19.400
329.25	-17.600
329.62	-10.946
329.98	-15.242
330.34	-14.307
330.71	-14.834
331.07	-17.729
331.43	-17.324
331.79	-13.710
332.16	-13.673
332.52	-14.618
332.88	-13.327
333.24	-14.545
333.61	-12.296
333.97	-11.741
334.33	-13.534
334.70	-13.535
335.06	-11.470
335.42	-14.341
335.78	-16.126
336.15	-10.469
336.51	-10.448
336.87	-13.921
337.23	-9.451
337.60	-12.940
337.96	-10.751
338.32	-11.209
338.68	-9.084
339.04	-8.970
339.41	-10.682
339.77	-10.673
340.13	-12.839
340.49	-10.523
340.86	-9.582
341.22	-10.660
341.58	-7.013
341.94	-10.225
342.30	-8.542
342.67	-9.272
343.03	-10.353
343.39	-9.617
343.75	-9.978
344.11	-6.870
344.48	-9.689
344.84	-6.995
345.20	-7.084
345.56	-8.056
345.92	-9.135
346.28	-5.519
346.65	-7.750
347.01	-6.511
347.37	-6.312
347.73	-6.974
348.09	-8.044
348.45	-8.060
348.82	-7.056
349.18	-6.163
349.54	-7.593
349.90	-5.953
350.26	-6.180
350.62	-4.819
350.98	-5.251
351.35	-7.396
351.71	-6.271
352.07	-5.549
352.43	-6.637
352.79	-7.277
353.15	-6.351
353.51	-4.054
353.87	-5.421
354.24	-5.152
354.60	-6.619
354.96	-5.620
355.32	-5.086
355.68	-4.517
356.04	-3.468
356.40	-5.248
356.76	-4.261
357.12	-5.026
357.48	-4.684
357.85	-4.633
358.21	-3.418
358.57	-5.027
358.93	-3.953
359.29	-4.306
359.65	-4.101
360.01	-4.593
360.37	-4.040
360.73	-4.383
361.09	-4.319
361.45	-4.591
361.81	-3.268
362.17	-3.144
362.53	-3.232
362.89	-3.211
363.25	-3.480
363.62	-3.492
363.98	-3.164
364.34	-3.808
364.70	-2.396
365.06	-3.516
365.42	-3.127
365.78	-2.077
366.14	-3.503
366.50	-2.895
366.86	-3.077
367.22	-2.513
367.58	-3.021
367.94	-2.164
368.30	-2.778
368.66	-3.075
369.02	-2.927
369.38	-2.000
369.74	-2.081
370.10	-2.294
370.46	-2.509
370.82	-2.936
371.18	-1.736
371.54	-2.035
371.90	-1.283
372.26	-2.492
372.62	-1.888
372.98	-1.672
373.33	-1.786
373.69	-1.056
374.05	-0.945
374.41	-2.411
374.77	-1.644
375.13	-1.420
375.49	-1.993
375.85	-0.719
376.21	-1.094
376.57	-1.614
376.93	-1.174
377.29	-1.329
377.65	-0.754
378.01	-0.983
378.37	-0.949
378.73	-0.636
379.08	-0.960
379.44	-0.724
379.80	-0.776
380.16	0.266
380.52	-0.281
380.88	0.332
381.24	0.385
381.60	-0.209
381.96	0.600
382.32	0.128
382.67	0.611
383.03	0.805
383.39	0.833
383.75	0.563
384.11	0.662
384.47	0.577
384.83	0.987
385.19	1.054
385.54	1.017
385.90	1.292
386.26	1.678
386.62	1.528
386.98	1.956
387.34	1.842
387.70	2.142
388.05	2.285
388.41	2.822
388.77	2.375
389.13	2.542
389.49	2.597
389.85	3.200
390.20	2.202
390.56	2.964
390.92	3.069
391.28	3.011
391.64	3.550
391.99	3.675
392.35	3.249
392.71	3.532
393.07	3.916
393.43	3.918
393.78	3.947
394.14	4.396
394.50	4.595
394.86	4.490
395.22	4.388
395.57	5.014
395.93	4.856
396.29	5.261
396.65	4.976
397.00	5.501
397.36	5.718
397.72	5.700
398.08	5.924
398.43	5.678
398.79	5.604
399.15	6.022
399.51	6.206
399.86	6.107
400.22	6.274
400.58	6.580
400.94	6.619
401.29	7.434
401.65	7.223
402.01	7.491
402.37	7.026
402.72	7.557
403.08	7.596
403.44	7.856
403.79	7.478
404.15	7.942
404.51	8.050
404.86	8.432
405.22	8.202
405.58	8.503
405.94	8.287
406.29	8.948
406.65	8.750
407.01	8.877
407.36	9.280
407.72	9.344
408.08	9.260
408.43	9.480
408.79	9.428
409.15	10.126
409.50	10.186
409.86	9.967
410.22	10.411
410.57	10.459
410.93	10.423
411.29	10.657
411.64	10.753
412.00	11.043
412.35	10.863
412.71	11.097
413.07	11.268
413.42	11.671
413.78	11.635
414.14	11.667
414.49	11.905
414.85	11.724
415.20	12.487
415.56	12.473
415.92	12.420
416.27	12.470
416.63	12.735
416.98	12.498
417.34	13.143
417.70	13.020
418.05	13.084
418.41	13.348
418.76	13.742
419.12	13.397
419.47	13.884
419.83	13.933
420.19	13.862
420.54	13.807
420.90	13.988
421.25	14.325
421.61	14.287
421.96	14.429
422.32	14.383
422.67	14.901
423.03	14.669
423.39	15.080
423.74	15.187
424.10	15.289
424.45	15.397
424.81	15.592
425.16	15.379
425.52	15.609
425.87	15.639
426.23	15.933
426.58	16.062
426.94	16.159
427.29	16.414
427.65	16.451
428.00	16.387
428.36	16.332
428.71	16.587
429.07	16.659
429.42	16.982
429.78	17.138
430.13	17.191
430.49	17.453
430.84	17.387
431.19	17.631
431.55	17.777
431.90	17.738
432.26	17.654
432.61	17.972
432.97	18.033
433.32	17.991
433.68	18.224
434.03	18.403
434.39	18.542
434.74	18.718
435.09	18.742
435.45	18.741
435.80	18.733
436.16	19.012
436.51	18.865
436.86	19.164
437.22	19.222
437.57	19.347
437.93	19.417
438.28	19.621
438.63	19.733
438.99	19.620
439.34	19.851
439.70	20.078
440.05	19.949
440.40	20.113
440.76	20.132
441.11	20.168
441.47	20.284
441.82	20.491
442.17	20.495
442.53	20.480
442.88	20.757
443.23	20.781
443.59	20.795
443.94	21.131
444.29	21.029
444.65	21.187
445.00	21.273
445.35	21.412
445.71	21.368
446.06	21.575
446.41	21.610
446.77	21.703
447.12	21.956
447.47	21.903
447.83	21.897
448.18	21.951
448.53	22.143
448.89	22.140
449.24	22.148
449.59	22.239
449.94	22.612
450.30	22.515
450.65	22.662
451.00	22.652
451.36	22.888
451.71	22.782
452.06	22.944
452.41	22.957
452.77	23.191
453.12	23.121
453.47	23.304
453.82	23.438
454.18	23.515
454.53	23.640
454.88	23.596
455.23	23.665
455.59	23.910
455.94	23.868
456.29	23.983
456.64	24.087
457.00	24.196
457.35	24.189
457.70	24.375
458.05	24.590
458.40	24.411
458.76	24.619
459.11	24.717
459.46	24.773
459.81	24.816
460.16	24.680
460.52	24.973
460.87	25.025
461.22	25.264
461.57	25.305
461.92	25.402
462.28	25.252
462.63	25.452
462.98	25.529
463.33	25.638
463.68	25.636
464.03	25.811
464.38	25.741
464.74	25.958
465.09	26.003
465.44	26.180
465.79	26.194
466.14	26.092
466.49	26.198
466.84	26.341
467.20	26.414
467.55	26.431
467.90	26.551
468.25	26.710
468.60	26.642
468.95	26.660
469.30	26.786
469.65	26.803
470.00	26.840
470.36	26.886
470.71	26.986
471.06	27.012
471.41	26.977
471.76	26.969
472.11	27.085
472.46	27.168
472.81	27.111
473.16	27.188
473.51	27.252
473.86	27.223
474.21	27.305
474.56	27.306
474.91	27.309
475.26	27.275
475.62	27.380
475.97	27.333
476.32	27.351
476.67	27.354
477.02	27.308
477.37	27.290
477.72	27.369
478.07	27.306
478.42	27.348
478.77	27.310
479.12	27.310
479.47	27.369
479.82	27.439
480.17	27.385
480.52	27.251
480.87	27.369
481.22	27.298
481.57	27.372
481.92	27.280
482.27	27.218
482.62	27.179
482.97	27.315
483.32	27.364
483.67	27.218
484.02	27.289
484.36	27.247
484.71	27.352
485.06	27.251
485.41	27.317
485.76	27.397
486.11	27.371
486.46	27.372
486.81	27.396
487.16	27.469
487.51	27.567
487.86	27.555
488.21	27.580
488.56	27.628
488.91	27.762
489.25	27.768
489.60	27.742
489.95	27.811
490.30	27.914
490.65	28.018
491.00	28.024
491.35	28.141
491.70	28.173
492.05	28.282
492.39	28.266
492.74	28.356
493.09	28.504
493.44	28.610
493.79	28.670
494.14	28.661
494.49	28.716
494.83	28.832
495.18	28.935
495.53	28.945
495.88	29.109
496.23	29.103
496.58	29.229
496.92	29.363
497.27	29.318
497.62	29.443
497.97	29.508
498.32	29.624
498.67	29.692
499.01	29.758
499.36	29.893
499.71	29.913
500.06	29.932
500.41	30.076
500.75	30.149
501.10	30.262
501.45	30.285
501.80	30.320
502.14	30.363
502.49	30.436
502.84	30.476
503.19	30.595
503.53	30.580
503.88	30.763
504.23	30.652
504.58	30.821
504.92	30.855
505.27	30.870
505.62	30.930
505.97	30.913
506.31	30.934
506.66	31.019
507.01	30.994
507.36	31.068
507.70	31.080
508.05	31.004
508.40	31.089
508.74	31.102
509.09	31.107
509.44	31.073
509.79	31.045
510.13	31.038
510.48	31.035
510.83	31.017
511.17	31.065
511.52	30.994
511.87	30.887
512.21	30.954
512.56	30.938
512.91	31.037
513.25	31.082
513.60	31.089
513.95	31.141
514.29	31.227
514.64	31.230
514.98	31.234
515.33	31.307
515.68	31.347
516.02	31.419
516.37	31.413
516.72	31.498
517.06	31.592
517.41	31.544
517.75	31.658
518.10	31.729
518.45	31.700
518.79	31.753
519.14	31.738
519.48	31.812
519.83	31.824
520.18	31.860
520.52	31.858
520.87	31.890
521.21	31.893
521.56	32.021
521.90	32.014
522.25	31.916
522.60	31.969
522.94	32.042
523.29	32.063
523.63	32.023
523.98	31.988
524.32	32.044
524.67	32.047
525.01	32.004
525.36	31.999
525.70	31.956
526.05	31.960
526.39	31.896
526.74	31.909
527.08	31.949
527.43	31.821
527.77	31.640
528.12	31.710
528.46	31.576
528.81	31.567
529.15	31.560
529.50	31.383
529.84	31.221
530.19	31.266
530.53	31.103
530.88	31.018
531.22	30.963
531.57	30.762
531.91	30.682
532.26	30.557
532.60	30.439
532.94	30.294
533.29	30.095
533.63	29.977
533.98	29.830
534.32	29.627
534.67	29.411
535.01	29.266
535.35	29.038
535.70	28.815
536.04	28.664
536.39	28.427
536.73	28.230
537.07	27.973
537.42	27.820
537.76	27.615
538.11	27.384
538.45	27.080
538.79	26.938
539.14	26.744
539.48	26.531
539.82	26.399
540.17	26.177
540.51	25.952
540.85	25.764
541.20	25.618
541.54	25.493
541.89	25.309
542.23	25.162
542.57	25.009
542.92	24.987
543.26	24.849
543.60	24.734
543.94	24.730
544.29	24.655
544.63	24.602
544.97	24.540
545.32	24.467
545.66	24.521
546.00	24.476
546.35	24.492
546.69	24.497
547.03	24.505
547.37	24.564
547.72	24.636
548.06	24.656
548.40	24.723
548.75	24.799
549.09	24.868
549.43	24.988
549.77	24.997
550.12	25.116
550.46	25.203
550.80	25.343
551.14	25.469
551.49	25.516
551.83	25.738
552.17	25.910
552.51	26.004
552.85	26.170
553.20	26.421
553.54	26.577
553.88	26.829
554.22	26.909
554.56	27.158
554.91	27.503
555.25	27.750
555.59	27.908
555.93	28.197
556.27	28.428
556.62	28.661
556.96	29.002
557.30	29.277
557.64	29.509
557.98	29.837
558.32	30.061
558.67	30.316
559.01	30.654
559.35	30.863
559.69	31.122
560.03	31.351
560.37	31.740
560.71	31.989
561.05	32.277
561.40	32.412
561.74	32.667
562.08	32.912
562.42	33.270
562.76	33.404
563.10	33.634
563.44	33.800
563.78	33.996
564.12	34.144
564.46	34.396
564.81	34.514
565.15	34.624
565.49	34.795
565.83	34.988
566.17	35.069
566.51	35.179
566.85	35.364
567.19	35.365
567.53	35.458
567.87	35.588
568.21	35.648
568.55	35.570
568.89	35.731
569.23	35.702
569.57	35.745
569.91	35.779
570.25	35.759
570.59	35.758
570.93	35.794
571.27	35.666
571.61	35.651
571.95	35.646
572.29	35.648
572.63	35.534
572.97	35.500
573.31	35.350
573.65	35.326
573.99	35.178
574.33	35.085
574.67	34.986
575.01	34.881
575.35	34.837
575.69	34.787
576.03	34.537
576.37	34.457
576.71	34.293
577.05	34.203
577.39	34.011
577.73	33.827
578.06	33.685
578.40	33.554
578.74	33.366
579.08	33.168
579.42	32.959
579.76	32.791
580.10	32.605
580.44	32.400
580.78	32.158
581.12	31.967
581.45	31.800
581.79	31.633
582.13	31.417
582.47	31.234
582.81	31.003
583.15	30.842
583.49	30.602
583.83	30.543
584.16	30.334
584.50	30.115
584.84	30.068
585.18	29.800
585.52	29.626
585.86	29.526
586.19	29.385
586.53	29.252
586.87	29.124
587.21	28.879
587.55	28.702
587.88	28.588
588.22	28.415
588.56	28.180
588.90	27.996
589.24	27.822
589.57	27.616
589.91	27.358
590.25	27.159
590.59	26.922
590.92	26.663
591.26	26.430
591.60	26.230
591.94	26.027
592.27	25.689
592.61	25.356
592.95	25.120
593.29	24.869
593.62	24.532
593.96	24.235
594.30	23.891
594.64	23.612
594.97	23.228
595.31	22.805
595.65	22.424
595.98	22.011
596.32	21.557
596.66	21.139
597.00	20.668
597.33	20.164
597.67	19.698
598.01	19.210
598.34	18.748
598.68	18.263
599.02	17.759
599.35	17.323
599.69	16.933
600.03	16.461
600.36	16.090
600.70	15.695
601.03	15.358
601.37	15.001
601.71	14.682
602.04	14.328
602.38	14.052
602.72	13.737
603.05	13.484
603.39	13.214
603.72	12.910
604.06	12.594
604.40	12.311
604.73	11.971
605.07	11.712
605.40	11.397
605.74	11.077
606.08	10.797
606.41	10.480
606.75	10.164
607.08	9.858
607.42	9.525
607.75	9.248
608.09	8.933
608.42	8.643
608.76	8.330
609.10	8.029
609.43	7.711
609.77	7.452
610.10	7.163
610.44	6.881
610.77	6.597
611.11	6.296
611.44	6.038
611.78	5.782
612.11	5.529
612.45	5.260
612.78	5.019
613.12	4.803
613.45	4.590
613.79	4.353
614.12	4.147
614.46	3.930
614.79	3.734
615.13	3.592
615.46	3.447
615.79	3.269
616.13	3.111
616.46	2.997
616.80	2.843
617.13	2.739
617.47	2.617
617.80	2.528
618.13	2.405
618.47	2.363
618.80	2.223
619.14	2.173
619.47	2.064
619.81	2.020
620.14	1.955
620.47	1.891
620.81	1.817
621.14	1.771
621.47	1.718
621.81	1.676
622.14	1.630
622.48	1.564
622.81	1.527
623.14	1.491
623.48	1.445
623.81	1.407
624.14	1.392
624.48	1.365
624.81	1.321
625.14	1.286
625.48	1.295
625.81	1.273
626.14	1.267
626.48	1.232
626.81	1.264
627.14	1.242
627.48	1.251
627.81	1.254
628.14	1.311
628.47	1.305
628.81	1.307
629.14	1.314
629.47	1.393
629.81	1.391
630.14	1.456
630.47	1.486
630.80	1.579
631.14	1.620
631.47	1.697
631.80	1.782
632.13	1.875
632.47	1.964
632.80	2.053
633.13	2.188
633.46	2.276
633.79	2.394
634.13	2.549
634.46	2.671
634.79	2.849
635.12	3.015
635.45	3.196
635.79	3.381
636.12	3.578
636.45	3.760
636.78	4.003
637.11	4.211
637.45	4.452
637.78	4.652
638.11	4.911
638.44	5.204
638.77	5.460
639.10	5.698
639.44	6.003
639.77	6.275
640.10	6.553
640.43	6.825
640.76	7.116
641.09	7.440
641.42	7.715
641.75	8.000
642.08	8.306
642.42	8.584
642.75	8.889
643.08	9.221
643.41	9.456
643.74	9.751
644.07	10.014
644.40	10.303
644.73	10.590
645.06	10.820
645.39	11.128
645.72	11.403
646.05	11.621
646.38	11.837
646.72	12.098
647.05	12.297
647.38	12.552
647.71	12.722
648.04	12.903
648.37	13.111
648.70	13.246
649.03	13.396
649.36	13.560
649.69	13.641
650.02	13.759
650.35	13.835
650.68	13.888
651.01	13.944
651.34	13.952
651.67	13.937
652.00	13.889
652.33	13.789
652.66	13.731
652.99	13.602
653.31	13.521
653.64	13.277
653.97	13.153
654.30	12.944
654.63	12.751
654.96	12.468
655.29	12.266
655.62	11.915
655.95	11.634
656.28	11.326
656.61	11.074
656.94	10.738
657.27	10.449
657.60	10.166
657.92	9.865
658.25	9.598
658.58	9.319
658.91	9.033
659.24	8.840
659.57	8.516
659.90	8.358
660.23	8.071
660.55	7.880
660.88	7.653
661.21	7.455
661.54	7.244
661.87	7.049
662.20	6.831
662.52	6.683
662.85	6.474
663.18	6.303
663.51	6.136
663.84	5.955
664.16	5.793
664.49	5.638
664.82	5.490
665.15	5.312
665.48	5.240
665.80	5.054
666.13	4.913
666.46	4.817
666.79	4.652
667.12	4.539
667.44	4.465
667.77	4.357
668.10	4.238
668.43	4.171
668.75	4.059
669.08	3.957
669.41	3.897
669.73	3.809
670.06	3.713
670.39	3.677
670.72	3.582
671.04	3.502
671.37	3.479
671.70	3.407
672.02	3.391
672.35	3.330
672.68	3.294
673.00	3.228
673.33	3.167
673.66	3.167
673.98	3.099
674.31	3.091
674.64	3.041
674.96	2.997
675.29	3.018
675.62	2.999
675.94	2.952
676.27	2.923
676.60	2.928
676.92	2.926
677.25	2.895
677.58	2.879
677.90	2.885
678.23	2.863
678.55	2.856
678.88	2.844
679.21	2.813
679.53	2.804
679.86	2.774
680.18	2.744
680.51	2.736
680.83	2.720
681.16	2.721
681.49	2.657
681.81	2.671
682.14	2.653
682.46	2.630
682.79	2.581
683.11	2.552
683.44	2.542
683.76	2.539
684.09	2.514
684.41	2.506
684.74	2.490
685.06	2.487
685.39	2.402
685.71	2.430
686.04	2.396
686.36	2.389
686.69	2.383
687.01	2.351
687.34	2.319
687.66	2.324
687.99	2.226
688.31	2.290
688.64	2.263
688.96	2.223
689.29	2.199
689.61	2.166
689.93	2.135
690.26	2.113
690.58	2.092
690.91	2.074
691.23	2.022
691.56	1.978
691.88	1.901
692.20	1.883
692.53	1.786
692.85	1.771
693.18	1.712
693.50	1.676
693.82	1.592
694.15	1.555
694.47	1.481
694.79	1.447
695.12	1.360
695.44	1.304
695.76	1.228
696.09	1.195
696.41	1.115
696.73	1.074
697.06	1.007
697.38	0.913
697.70	0.843
698.03	0.787
698.35	0.731
698.67	0.690
699.00	0.646
699.32	0.542
699.64	0.544
699.97	0.457
700.29	0.410
700.61	0.385
700.93	0.327
701.26	0.350
701.58	0.289
701.90	0.242
702.22	0.181
702.55	0.148
702.87	0.169
703.19	0.103
703.51	0.092
703.84	0.076
704.16	0.078
704.48	0.047
704.80	0.008
705.13	0.023
705.45	0.010
705.77	-0.029
706.09	0.004
706.41	-0.042
706.74	-0.038
707.06	-0.071
707.38	-0.064
707.70	-0.093
708.02	-0.051
708.34	-0.040
708.67	-0.088
708.99	-0.099
709.31	-0.121
709.63	-0.136
709.95	-0.131
710.27	-0.117
710.59	-0.126
710.92	-0.120
711.24	-0.106
711.56	-0.161
711.88	-0.185
712.20	-0.180
712.52	-0.185
712.84	-0.173
713.16	-0.154
713.48	-0.115
713.80	-0.162
714.12	-0.146
714.45	-0.135
714.77	-0.186
715.09	-0.159
715.41	-0.169
715.73	-0.185
716.05	-0.200
716.37	-0.168
716.69	-0.138
717.01	-0.213
717.33	-0.227
717.65	-0.201
717.97	-0.226
718.29	-0.159
718.61	-0.209
718.93	-0.199
719.25	-0.178
719.57	-0.140
719.89	-0.230
720.21	-0.227
720.53	-0.259
720.85	-0.274
721.17	-0.281
721.49	-0.254
721.81	-0.296
722.13	-0.277
722.45	-0.297
722.77	-0.219
723.09	-0.358
723.41	-0.347
723.72	-0.298
724.04	-0.327
724.36	-0.398
724.68	-0.308
725.00	-0.296
725.32	-0.297
725.64	-0.377
725.96	-0.388
726.28	-0.359
726.60	-0.285
726.91	-0.320
727.23	-0.402
727.55	-0.338
727.87	-0.383
728.19	-0.389
728.51	-0.366
728.83	-0.328
729.14	-0.345
729.46	-0.439
729.78	-0.469
730.10	-0.397
730.42	-0.455
730.74	-0.366
731.05	-0.525
731.37	-0.483
731.69	-0.430
732.01	-0.484
732.33	-0.443
732.64	-0.476
732.96	-0.389
733.28	-0.380
733.60	-0.458
733.92	-0.532
734.23	-0.448
734.55	-0.482
734.87	-0.489
735.19	-0.407
735.50	-0.450
735.82	-0.412
736.14	-0.420
736.45	-0.481
736.77	-0.442
737.09	-0.499
737.41	-0.381
737.72	-0.434
738.04	-0.481
738.36	-0.470
738.67	-0.416
738.99	-0.445
739.31	-0.454
739.63	-0.539
739.94	-0.537
740.26	-0.488
740.58	-0.456
740.89	-0.489
741.21	-0.430
741.52	-0.421
741.84	-0.407
742.16	-0.419
742.47	-0.412
742.79	-0.445
743.11	-0.427
743.42	-0.399
743.74	-0.326
744.05	-0.493
744.37	-0.488
744.69	-0.439
745.00	-0.437
745.32	-0.480
745.63	-0.407
745.95	-0.512
746.27	-0.363
746.58	-0.441
746.90	-0.333
747.21	-0.477
747.53	-0.404
747.84	-0.375
748.16	-0.413
748.47	-0.382
748.79	-0.425
749.10	-0.430
749.42	-0.387
749.74	-0.398
750.05	-0.359
750.37	-0.378
750.68	-0.389
751.00	-0.385
751.31	-0.420
751.62	-0.384
751.94	-0.390
752.25	-0.336
752.57	-0.334
752.88	-0.345
753.20	-0.362
753.51	-0.363
753.83	-0.363
754.14	-0.347
754.46	-0.311
754.77	-0.362
755.08	-0.406
755.40	-0.334
755.71	-0.376
756.03	-0.416
756.34	-0.366
756.66	-0.323
756.97	-0.379
757.28	-0.311
757.60	-0.340
757.91	-0.425
758.22	-0.311
758.54	-0.388
758.85	-0.375
759.17	-0.313
759.48	-0.319
759.79	-0.351
760.11	-0.329
760.42	-0.278
760.73	-0.443
761.05	-0.359
761.36	-0.363
761.67	-0.317
761.99	-0.309
762.30	-0.339
762.61	-0.306
762.92	-0.305
763.24	-0.322
763.55	-0.335
763.86	-0.366
764.18	-0.337
764.49	-0.293
764.80	-0.251
765.11	-0.283
765.43	-0.356
765.74	-0.340
766.05	-0.314
766.36	-0.349
766.68	-0.317
766.99	-0.389
767.30	-0.343
767.61	-0.316
767.93	-0.321
768.24	-0.236
768.55	-0.319
768.86	-0.309
769.17	-0.289
769.49	-0.368
769.80	-0.304
770.11	-0.298
770.42	-0.327
770.73	-0.298
771.04	-0.307
771.36	-0.329
771.67	-0.394
771.98	-0.313
772.29	-0.310
772.60	-0.326
772.91	-0.286
773.22	-0.370
773.54	-0.284
773.85	-0.341
774.16	-0.292
774.47	-0.306
774.78	-0.342
775.09	-0.401
775.40	-0.353
775.71	-0.351
776.02	-0.267
776.33	-0.348
776.64	-0.302
776.96	-0.324
777.27	-0.361
777.58	-0.357
777.89	-0.391
778.20	-0.373
778.51	-0.400
778.82	-0.424
779.13	-0.348
779.44	-0.379
779.75	-0.375
780.06	-0.406
780.37	-0.365
780.68	-0.319
780.99	-0.390
781.30	-0.372
781.61	-0.427
781.92	-0.417
782.23	-0.476
782.54	-0.452
782.85	-0.399
783.16	-0.425
783.47	-0.451
783.78	-0.409
784.08	-0.414
784.39	-0.435
784.70	-0.410
785.01	-0.437
785.32	-0.407
785.63	-0.358
785.94	-0.380
786.25	-0.460
786.56	-0.432
786.87	-0.352
787.18	-0.478
787.48	-0.443
787.79	-0.491
788.10	-0.441
788.41	-0.414
788.72	-0.517
789.03	-0.473
789.34	-0.551
789.64	-0.518
789.95	-0.575
790.26	-0.532
790.57	-0.538
790.88	-0.596
791.19	-0.503
791.49	-0.477
791.80	-0.436
792.11	-0.506
792.42	-0.549
792.73	-0.559
793.03	-0.592
793.34	-0.552
793.65	-0.660
793.96	-0.696
794.27	-0.559
794.57	-0.657
794.88	-0.683
795.19	-0.690
795.50	-0.594
795.80	-0.645
796.11	-0.688
796.42	-0.665
796.72	-0.690
797.03	-0.659
797.34	-0.660
797.65	-0.701
797.95	-0.673
798.26	-0.654
798.57	-0.623
798.87	-0.490
799.18	-0.753
799.49	-0.694
799.79	-0.700
800.10	-0.803
800.41	-0.631
800.71	-0.618
801.02	-0.748
801.33	-0.838
801.63	-0.706
801.94	-0.749
802.24	-0.820
802.55	-0.824
802.86	-0.885
803.16	-0.709
803.47	-0.906
803.77	-0.908
804.08	-0.683
804.39	-0.812
804.69	-0.778
805.00	-0.727
805.30	-0.848
805.61	-0.833
805.91	-0.971
806.22	-0.817
806.53	-1.001
806.83	-0.922
807.14	-0.860
807.44	-0.922
807.75	-0.898
808.05	-0.934
808.36	-0.867
808.66	-1.077
808.97	-1.066
809.27	-0.987
809.58	-0.946
809.88	-0.930
810.19	-0.990
810.49	-1.173
810.80	-0.919
811.10	-1.155
811.41	-0.903
811.71	-1.043
812.01	-1.045
812.32	-1.050
812.62	-1.061
812.93	-1.101
813.23	-1.092
813.54	-1.078
813.84	-1.185
814.14	-1.086
814.45	-1.086
814.75	-1.194
815.06	-1.070
815.36	-0.994
815.66	-1.433
815.97	-1.105
816.27	-1.143
816.58	-1.260
816.88	-1.410
817.18	-1.455
817.49	-1.138
817.79	-1.464
818.09	-1.397
818.40	-1.150
818.70	-1.400
819.00	-1.383
819.31	-1.247
819.61	-1.434
819.91	-1.509
820.21	-1.294
820.52	-1.425
820.82	-1.634
821.12	-1.451
821.43	-1.404
821.73	-1.425
822.03	-1.477
822.33	-1.641
822.64	-1.626
822.94	-1.625
823.24	-1.952
823.54	-1.562
823.85	-2.008
824.15	-1.626
824.45	-1.660
824.75	-1.904
825.05	-1.818
825.36	-1.808
825.66	-1.798
825.96	-1.837
826.26	-1.902
826.56	-2.091
826.87	-1.943
827.17	-1.927
827.47	-2.044
827.77	-2.257
828.07	-2.352
828.37	-2.240
828.67	-2.083
828.98	-1.985
829.28	-2.299
829.58	-2.197
829.88	-2.229
830.18	-2.468
830.48	-2.415
830.78	-2.437
831.08	-2.783
831.38	-2.868
831.69	-2.950
831.99	-2.392
832.29	-2.906
832.59	-2.685
832.89	-3.197
833.19	-2.531
833.49	-2.738
833.79	-3.329
834.09	-2.766
834.39	-2.810
834.69	-3.370
834.99	-2.768
835.29	-3.335
835.59	-3.255
835.89	-3.837
836.19	-3.256
836.49	-3.625
836.79	-4.015
837.09	-3.710
837.39	-4.008
837.69	-3.593
837.99	-3.741
838.29	-3.860
838.59	-4.670
838.89	-4.996
839.19	-4.217
839.49	-4.418
839.79	-4.727
840.09	-5.037
840.39	-4.748
840.68	-4.639
840.98	-5.463
841.28	-4.427
841.58	-5.304
841.88	-5.338
842.18	-5.324
842.48	-6.073
842.78	-6.070
843.08	-5.334
843.37	-5.669
843.67	-6.186
843.97	-6.234
844.27	-5.712
844.57	-6.374
844.87	-6.151
845.16	-7.606
845.46	-7.087
845.76	-6.346
846.06	-7.467
846.36	-7.635
846.66	-8.392
846.95	-8.836
847.25	-7.823
847.55	-6.886
847.85	-6.957
848.14	-7.686
848.44	-9.563
848.74	-8.284
849.04	-8.491
849.33	-9.244
849.63	-9.338
849.93	-10.142
850.23	-10.502
850.52	-10.371
850.82	-10.534
851.12	-11.356
851.42	-10.994
851.71	-12.626
852.01	-11.515
852.31	-11.333
852.60	-11.255
852.90	-15.443
853.20	-13.986
853.49	-14.534
853.79	-15.074
854.09	-14.693
854.38	-14.973
854.68	-13.108
854.98	-13.806
855.27	-13.497
855.57	-13.396
855.86	-15.049
856.16	-16.192
856.46	-14.995
856.75	-16.430
857.05	-15.624
857.34	-16.679
857.64	-12.275
857.94	-18.454
858.23	-16.465
858.53	-17.550
858.82	-16.974
859.12	-15.867
859.41	-14.987
859.71	-17.001
860.01	-18.609
860.30	-15.474
860.60	-17.607
860.89	-15.091
861.19	-17.294
861.48	-15.699
861.78	-19.924
862.07	-17.251
862.37	-17.638
862.66	-16.600
862.96	-16.755
863.25	-19.622
863.55	-19.082
863.84	-16.978
864.13	-18.678
864.43	-18.439
864.72	-16.865
865.02	-20.604
865.31	-18.894
865.61	-16.040
865.90	-18.338
866.19	-21.153
866.49	-17.131
866.78	-18.314
867.08	-17.698
867.37	-20.230
867.66	-19.771
867.96	-17.206
868.25	-17.117
868.55	-19.693
868.84	-18.137
869.13	-17.146
869.43	-18.310
869.72	-18.232
870.01	-20.147
870.31	-14.192
870.60	-20.246
870.89	-17.453
871.19	-16.457
871.48	-18.151
871.77	-18.952
872.07	-18.445
872.36	-17.975
872.65	-17.247
872.94	-16.598
873.24	-16.631
873.53	-19.323
873.82	-18.043
874.11	-18.753
874.41	-21.429
874.70	-18.709
>>>>>End Processed Spectral Data<<<<<
