SpectraSuite Data File
++++++++++++++++++++++++++++++++++++
Date: Tue Apr 07 18:38:08 BST 2015
User: mpfc3
Dark Spectrum Present: Yes
Reference Spectrum Present: Yes
Number of Sampled Component Spectra: 1
Spectrometers: USB2E3636
Integration Time (usec): 30000 (USB2E3636)
Spectra Averaged: 100 (USB2E3636)
Boxcar Smoothing: 0 (USB2E3636)
Correct for Electrical Dark: No (USB2E3636)
Strobe/Lamp Enabled: No (USB2E3636)
Correct for Detector Non-linearity: No (USB2E3636)
Correct for Stray Light: No (USB2E3636)
Number of Pixels in Processed Spectrum: 2048
>>>>>Begin Processed Spectral Data<<<<<
180.28	0.000
180.65	1743.243
181.02	1017.910
181.39	696.842
181.77	701.980
182.14	1085.000
182.51	2189.655
182.88	901.370
183.25	1184.615
183.63	1167.857
184.00	835.802
184.37	1433.333
184.74	1659.459
185.11	2503.704
185.49	767.059
185.86	992.000
186.23	1192.857
186.60	1221.667
186.97	642.202
187.35	1723.810
187.72	535.385
188.09	888.000
188.46	1871.429
188.83	505.645
189.20	-212.121
189.58	-27.684
189.95	-25.385
190.32	-29.475
190.69	-21.413
191.06	-31.993
191.43	-25.714
191.81	-24.933
192.18	-25.166
192.55	-29.683
192.92	-26.959
193.29	-29.852
193.66	-28.393
194.03	-25.336
194.41	-25.324
194.78	-29.649
195.15	-29.352
195.52	-31.064
195.89	-30.193
196.26	-26.652
196.63	-24.902
197.01	-26.835
197.38	-26.707
197.75	-28.916
198.12	-26.794
198.49	-23.414
198.86	-26.217
199.23	-22.639
199.60	-27.578
199.98	-29.608
200.35	-23.673
200.72	-31.293
201.09	-26.842
201.46	-30.743
201.83	-28.378
202.20	-33.081
202.57	-29.753
202.94	-29.066
203.31	-32.686
203.69	-31.190
204.06	-30.796
204.43	-34.403
204.80	-27.685
205.17	-28.538
205.54	-30.523
205.91	-28.638
206.28	-25.993
206.65	-27.803
207.02	-28.580
207.39	-27.497
207.76	-31.954
208.14	-31.349
208.51	-28.946
208.88	-26.750
209.25	-28.529
209.62	-33.017
209.99	-28.957
210.36	-33.845
210.73	-30.971
211.10	-32.162
211.47	-31.112
211.84	-27.251
212.21	-29.444
212.58	-33.730
212.95	-27.541
213.32	-29.852
213.69	-32.899
214.06	-33.374
214.43	-35.368
214.80	-27.333
215.17	-33.480
215.55	-32.209
215.92	-27.553
216.29	-29.736
216.66	-29.499
217.03	-30.492
217.40	-33.291
217.77	-28.491
218.14	-29.408
218.51	-33.437
218.88	-31.861
219.25	-28.616
219.62	-32.500
219.99	-30.451
220.36	-37.169
220.73	-30.405
221.10	-35.526
221.47	-34.286
221.84	-32.833
222.21	-32.463
222.58	-41.220
222.95	-34.929
223.32	-36.295
223.69	-35.072
224.06	-38.141
224.43	-35.989
224.80	-34.695
225.17	-38.970
225.54	-34.690
225.91	-33.557
226.27	-20.399
226.64	-35.021
227.01	-40.928
227.38	-38.478
227.75	-35.602
228.12	-36.037
228.49	-33.897
228.86	-37.456
229.23	-35.873
229.60	-34.843
229.97	-38.483
230.34	-39.759
230.71	-34.229
231.08	-39.589
231.45	-34.232
231.82	-41.078
232.19	-35.892
232.56	-43.150
232.93	-40.403
233.30	-36.978
233.66	-39.820
234.03	-36.028
234.40	-40.821
234.77	-31.491
235.14	-39.118
235.51	-42.726
235.88	-36.801
236.25	-40.070
236.62	-40.424
236.99	-39.956
237.36	-38.778
237.73	-34.792
238.09	-38.235
238.46	-36.639
238.83	-40.746
239.20	-37.031
239.57	-37.799
239.94	-39.071
240.31	-34.952
240.68	-40.029
241.05	-41.407
241.41	-41.181
241.78	-41.527
242.15	-33.830
242.52	-39.594
242.89	-38.685
243.26	-41.363
243.63	-37.863
244.00	-39.444
244.36	-37.846
244.73	-39.032
245.10	-46.112
245.47	-41.190
245.84	-41.757
246.21	-45.247
246.58	-43.889
246.94	-39.939
247.31	-37.122
247.68	-36.162
248.05	-40.366
248.42	-38.491
248.79	-34.812
249.15	-41.456
249.52	-40.778
249.89	-41.494
250.26	-42.790
250.63	-47.707
251.00	-41.913
251.36	-47.295
251.73	-47.168
252.10	-44.158
252.47	-39.529
252.84	-40.165
253.20	-46.819
253.57	-41.538
253.94	-37.006
254.31	-44.893
254.68	-46.875
255.05	-45.820
255.41	-45.998
255.78	-42.969
256.15	-46.191
256.52	-41.500
256.88	-52.563
257.25	-39.038
257.62	-51.062
257.99	-45.889
258.36	-49.705
258.72	-46.495
259.09	-45.323
259.46	-37.480
259.83	-44.980
260.19	-45.205
260.56	-44.226
260.93	-48.189
261.30	-43.425
261.67	-49.313
262.03	-41.143
262.40	-43.493
262.77	-41.756
263.14	-43.045
263.50	-42.571
263.87	-41.753
264.24	-46.841
264.61	-46.147
264.97	-46.968
265.34	-45.747
265.71	-45.455
266.07	-41.827
266.44	-43.827
266.81	-42.248
267.18	-39.566
267.54	-43.796
267.91	-37.585
268.28	-45.132
268.64	-35.840
269.01	-36.683
269.38	-44.728
269.75	-43.184
270.11	-36.667
270.48	-42.405
270.85	-43.530
271.21	-41.404
271.58	-54.013
271.95	-44.472
272.32	-39.350
272.68	-44.533
273.05	-44.698
273.42	-46.141
273.78	-39.580
274.15	-41.546
274.52	-47.569
274.88	-48.679
275.25	-50.843
275.62	-51.082
275.98	-40.361
276.35	-41.186
276.72	-54.617
277.08	-42.811
277.45	-38.370
277.82	-44.575
278.18	-48.702
278.55	-43.990
278.92	-52.622
279.28	-43.262
279.65	-38.577
280.01	-45.175
280.38	-43.925
280.75	-50.427
281.11	-56.163
281.48	-40.898
281.85	-48.213
282.21	-46.827
282.58	-35.497
282.95	-38.787
283.31	-43.077
283.68	-42.349
284.04	-44.444
284.41	-49.473
284.78	-37.331
285.14	-44.690
285.51	-43.006
285.87	-44.634
286.24	-41.162
286.61	-51.165
286.97	-50.180
287.34	-42.590
287.70	-39.767
288.07	-40.181
288.44	-43.548
288.80	-50.530
289.17	-44.155
289.53	-50.712
289.90	-45.341
290.26	-51.094
290.63	-38.563
291.00	-40.556
291.36	-44.663
291.73	-42.869
292.09	-46.356
292.46	-36.526
292.82	-42.136
293.19	-49.561
293.56	-38.723
293.92	-41.431
294.29	-50.955
294.65	-42.171
295.02	-41.421
295.38	-43.766
295.75	-49.406
296.11	-43.056
296.48	-40.374
296.84	-39.952
297.21	-47.469
297.57	-51.715
297.94	-39.344
298.30	-40.829
298.67	-45.286
299.04	-43.966
299.40	-39.676
299.77	-37.127
300.13	-43.091
300.50	-40.501
300.86	-37.279
301.23	-36.967
301.59	-42.569
301.96	-41.990
302.32	-39.876
302.69	-43.807
303.05	-45.678
303.42	-44.801
303.78	-41.508
304.14	-37.885
304.51	-48.718
304.87	-41.776
305.24	-36.682
305.60	-45.595
305.97	-37.519
306.33	-47.855
306.70	-48.000
307.06	-40.772
307.43	-37.045
307.79	-35.092
308.16	-34.589
308.52	-45.431
308.88	-44.209
309.25	-36.950
309.61	-40.032
309.98	-37.709
310.34	-45.143
310.71	-43.439
311.07	-34.609
311.44	-43.144
311.80	-41.961
312.16	-37.918
312.53	-34.665
312.89	-35.747
313.26	-40.229
313.62	-38.523
313.98	-40.321
314.35	-40.403
314.71	-30.286
315.08	-39.343
315.44	-38.024
315.80	-34.629
316.17	-38.421
316.53	-31.657
316.90	-38.805
317.26	-37.472
317.62	-38.576
317.99	-33.540
318.35	-32.759
318.72	-36.802
319.08	-32.041
319.44	-37.017
319.81	-36.814
320.17	-30.319
320.53	-31.833
320.90	-33.012
321.26	-37.165
321.62	-33.946
321.99	-36.399
322.35	-33.267
322.72	-26.489
323.08	-30.769
323.44	-32.221
323.81	-33.418
324.17	-27.622
324.53	-31.592
324.90	-30.629
325.26	-30.054
325.62	-33.167
325.99	-34.485
326.35	-24.443
326.71	-25.783
327.08	-30.097
327.44	-26.269
327.80	-26.152
328.16	-25.820
328.53	-26.678
328.89	-32.375
329.25	-26.255
329.62	-23.145
329.98	-21.709
330.34	-23.286
330.71	-23.713
331.07	-25.385
331.43	-25.562
331.79	-21.524
332.16	-23.810
332.52	-26.041
332.88	-19.800
333.24	-18.727
333.61	-23.661
333.97	-20.603
334.33	-19.539
334.70	-20.631
335.06	-17.837
335.42	-18.761
335.78	-21.459
336.15	-17.158
336.51	-16.874
336.87	-20.025
337.23	-19.426
337.60	-17.175
337.96	-15.950
338.32	-19.051
338.68	-13.984
339.04	-16.724
339.41	-16.042
339.77	-17.218
340.13	-17.425
340.49	-16.505
340.86	-16.339
341.22	-16.863
341.58	-13.445
341.94	-17.470
342.30	-16.273
342.67	-12.429
343.03	-15.101
343.39	-13.863
343.75	-16.201
344.11	-13.739
344.48	-14.250
344.84	-11.973
345.20	-11.706
345.56	-11.590
345.92	-14.943
346.28	-10.218
346.65	-12.192
347.01	-13.592
347.37	-12.905
347.73	-12.580
348.09	-13.176
348.45	-11.472
348.82	-12.308
349.18	-10.917
349.54	-11.998
349.90	-11.191
350.26	-10.981
350.62	-9.737
350.98	-8.679
351.35	-10.788
351.71	-10.348
352.07	-8.926
352.43	-11.299
352.79	-10.622
353.15	-10.308
353.51	-10.168
353.87	-7.748
354.24	-9.069
354.60	-10.275
354.96	-7.970
355.32	-9.130
355.68	-8.496
356.04	-7.909
356.40	-9.378
356.76	-8.185
357.12	-8.410
357.48	-6.506
357.85	-8.598
358.21	-6.895
358.57	-6.753
358.93	-6.793
359.29	-5.735
359.65	-8.147
360.01	-8.145
360.37	-6.341
360.73	-7.791
361.09	-6.869
361.45	-7.366
361.81	-5.643
362.17	-6.255
362.53	-6.577
362.89	-6.129
363.25	-6.323
363.62	-6.642
363.98	-6.329
364.34	-6.641
364.70	-5.630
365.06	-6.209
365.42	-5.750
365.78	-4.954
366.14	-5.993
366.50	-5.119
366.86	-5.195
367.22	-3.990
367.58	-5.654
367.94	-5.116
368.30	-4.745
368.66	-5.183
369.02	-5.459
369.38	-4.555
369.74	-4.303
370.10	-4.791
370.46	-3.821
370.82	-4.997
371.18	-3.743
371.54	-3.743
371.90	-3.409
372.26	-4.165
372.62	-3.764
372.98	-4.071
373.33	-4.056
373.69	-3.406
374.05	-2.595
374.41	-3.263
374.77	-3.646
375.13	-3.903
375.49	-3.901
375.85	-2.832
376.21	-2.688
376.57	-3.125
376.93	-3.299
377.29	-2.787
377.65	-2.469
378.01	-2.674
378.37	-2.300
378.73	-2.380
379.08	-2.653
379.44	-2.181
379.80	-1.946
380.16	-1.470
380.52	-1.814
380.88	-1.248
381.24	-1.092
381.60	-1.461
381.96	-0.703
382.32	-1.113
382.67	-0.831
383.03	-1.229
383.39	-0.486
383.75	-1.258
384.11	-0.597
384.47	-0.377
384.83	-0.207
385.19	-0.527
385.54	-0.328
385.90	-0.444
386.26	0.178
386.62	0.053
386.98	0.892
387.34	0.472
387.70	0.699
388.05	1.146
388.41	0.936
388.77	1.155
389.13	1.157
389.49	1.390
389.85	1.382
390.20	1.301
390.56	2.140
390.92	1.691
391.28	1.489
391.64	2.068
391.99	2.363
392.35	2.769
392.71	2.693
393.07	2.592
393.43	2.819
393.78	2.924
394.14	3.334
394.50	3.620
394.86	3.739
395.22	3.610
395.57	3.971
395.93	3.701
396.29	4.410
396.65	4.256
397.00	4.659
397.36	4.393
397.72	4.655
398.08	4.835
398.43	4.756
398.79	5.051
399.15	4.826
399.51	5.001
399.86	4.884
400.22	5.466
400.58	5.340
400.94	5.686
401.29	6.431
401.65	6.236
402.01	6.435
402.37	6.074
402.72	6.884
403.08	6.813
403.44	6.861
403.79	6.916
404.15	7.166
404.51	7.110
404.86	7.749
405.22	7.764
405.58	7.952
405.94	8.014
406.29	8.042
406.65	7.988
407.01	8.221
407.36	8.485
407.72	8.430
408.08	8.850
408.43	8.816
408.79	9.036
409.15	9.449
409.50	9.381
409.86	9.458
410.22	9.520
410.57	9.785
410.93	9.745
411.29	10.419
411.64	10.142
412.00	10.384
412.35	10.550
412.71	10.411
413.07	10.336
413.42	10.922
413.78	11.081
414.14	11.116
414.49	11.100
414.85	11.095
415.20	11.916
415.56	11.555
415.92	11.865
416.27	11.872
416.63	12.484
416.98	12.031
417.34	12.493
417.70	12.432
418.05	12.766
418.41	12.545
418.76	12.996
419.12	12.688
419.47	13.213
419.83	13.511
420.19	13.252
420.54	13.319
420.90	13.440
421.25	13.913
421.61	13.838
421.96	13.687
422.32	14.148
422.67	14.311
423.03	14.360
423.39	14.488
423.74	14.558
424.10	14.889
424.45	14.886
424.81	14.997
425.16	14.778
425.52	15.271
425.87	15.469
426.23	15.578
426.58	15.579
426.94	15.704
427.29	15.974
427.65	15.941
428.00	16.018
428.36	16.086
428.71	16.198
429.07	16.367
429.42	16.522
429.78	16.516
430.13	16.820
430.49	16.928
430.84	16.920
431.19	16.998
431.55	17.167
431.90	17.290
432.26	17.519
432.61	17.669
432.97	17.839
433.32	17.813
433.68	17.806
434.03	18.004
434.39	18.166
434.74	18.130
435.09	18.274
435.45	18.240
435.80	18.408
436.16	18.622
436.51	18.619
436.86	18.951
437.22	18.929
437.57	19.118
437.93	19.125
438.28	19.200
438.63	19.273
438.99	19.334
439.34	19.590
439.70	19.697
440.05	19.658
440.40	19.713
440.76	19.787
441.11	19.948
441.47	20.038
441.82	20.137
442.17	20.169
442.53	20.277
442.88	20.333
443.23	20.508
443.59	20.554
443.94	20.743
444.29	20.738
444.65	20.777
445.00	21.042
445.35	21.007
445.71	21.229
446.06	21.134
446.41	21.366
446.77	21.203
447.12	21.362
447.47	21.620
447.83	21.596
448.18	21.797
448.53	21.850
448.89	21.815
449.24	21.871
449.59	21.936
449.94	22.186
450.30	22.124
450.65	22.328
451.00	22.348
451.36	22.628
451.71	22.654
452.06	22.758
452.41	22.743
452.77	22.927
453.12	22.934
453.47	22.908
453.82	23.071
454.18	23.233
454.53	23.080
454.88	23.341
455.23	23.553
455.59	23.583
455.94	23.740
456.29	23.764
456.64	23.937
457.00	24.020
457.35	23.924
457.70	24.106
458.05	24.090
458.40	24.260
458.76	24.282
459.11	24.430
459.46	24.561
459.81	24.673
460.16	24.478
460.52	24.788
460.87	24.793
461.22	24.871
461.57	25.032
461.92	25.242
462.28	25.106
462.63	25.239
462.98	25.349
463.33	25.487
463.68	25.365
464.03	25.561
464.38	25.576
464.74	25.664
465.09	25.678
465.44	25.870
465.79	25.872
466.14	25.945
466.49	26.088
466.84	26.191
467.20	26.076
467.55	26.239
467.90	26.407
468.25	26.208
468.60	26.381
468.95	26.454
469.30	26.479
469.65	26.603
470.00	26.726
470.36	26.737
470.71	26.688
471.06	26.774
471.41	26.841
471.76	26.912
472.11	26.838
472.46	26.856
472.81	26.973
473.16	26.974
473.51	27.007
473.86	27.064
474.21	27.101
474.56	27.184
474.91	27.156
475.26	26.987
475.62	27.126
475.97	27.220
476.32	27.233
476.67	27.141
477.02	27.110
477.37	27.134
477.72	27.283
478.07	27.154
478.42	27.287
478.77	27.203
479.12	27.140
479.47	27.237
479.82	27.286
480.17	27.271
480.52	27.130
480.87	27.214
481.22	27.148
481.57	27.199
481.92	27.208
482.27	27.150
482.62	27.133
482.97	27.158
483.32	27.149
483.67	27.220
484.02	27.148
484.36	27.146
484.71	27.159
485.06	27.229
485.41	27.185
485.76	27.227
486.11	27.220
486.46	27.270
486.81	27.325
487.16	27.342
487.51	27.397
487.86	27.518
488.21	27.530
488.56	27.536
488.91	27.561
489.25	27.670
489.60	27.712
489.95	27.764
490.30	27.854
490.65	27.969
491.00	27.964
491.35	27.994
491.70	28.061
492.05	28.148
492.39	28.228
492.74	28.246
493.09	28.351
493.44	28.459
493.79	28.613
494.14	28.610
494.49	28.659
494.83	28.758
495.18	28.896
495.53	28.923
495.88	29.029
496.23	29.122
496.58	29.220
496.92	29.269
497.27	29.315
497.62	29.361
497.97	29.395
498.32	29.560
498.67	29.667
499.01	29.671
499.36	29.834
499.71	29.929
500.06	29.878
500.41	29.990
500.75	30.129
501.10	30.155
501.45	30.158
501.80	30.214
502.14	30.320
502.49	30.350
502.84	30.407
503.19	30.542
503.53	30.627
503.88	30.649
504.23	30.637
504.58	30.769
504.92	30.735
505.27	30.812
505.62	30.899
505.97	30.874
506.31	30.987
506.66	31.007
507.01	31.023
507.36	31.007
507.70	30.972
508.05	31.037
508.40	31.047
508.74	31.057
509.09	31.111
509.44	31.042
509.79	31.021
510.13	30.952
510.48	31.032
510.83	31.018
511.17	31.015
511.52	30.935
511.87	30.937
512.21	30.893
512.56	30.959
512.91	31.030
513.25	31.019
513.60	31.022
513.95	31.097
514.29	31.121
514.64	31.203
514.98	31.251
515.33	31.271
515.68	31.334
516.02	31.362
516.37	31.438
516.72	31.484
517.06	31.573
517.41	31.518
517.75	31.566
518.10	31.670
518.45	31.651
518.79	31.648
519.14	31.726
519.48	31.786
519.83	31.803
520.18	31.901
520.52	31.801
520.87	31.880
521.21	31.945
521.56	32.033
521.90	31.982
522.25	31.933
522.60	31.962
522.94	32.006
523.29	32.018
523.63	32.037
523.98	32.020
524.32	31.985
524.67	31.996
525.01	31.951
525.36	31.962
525.70	31.908
526.05	31.940
526.39	31.902
526.74	31.870
527.08	31.807
527.43	31.715
527.77	31.675
528.12	31.685
528.46	31.562
528.81	31.568
529.15	31.473
529.50	31.414
529.84	31.254
530.19	31.300
530.53	31.102
530.88	31.037
531.22	30.900
531.57	30.844
531.91	30.673
532.26	30.547
532.60	30.392
532.94	30.306
533.29	30.087
533.63	29.968
533.98	29.747
534.32	29.606
534.67	29.414
535.01	29.217
535.35	29.036
535.70	28.815
536.04	28.624
536.39	28.477
536.73	28.214
537.07	28.067
537.42	27.831
537.76	27.595
538.11	27.348
538.45	27.175
538.79	26.895
539.14	26.718
539.48	26.562
539.82	26.371
540.17	26.134
540.51	25.947
540.85	25.756
541.20	25.604
541.54	25.417
541.89	25.304
542.23	25.186
542.57	25.010
542.92	24.937
543.26	24.785
543.60	24.711
543.94	24.616
544.29	24.643
544.63	24.556
544.97	24.503
545.32	24.506
545.66	24.464
546.00	24.484
546.35	24.447
546.69	24.463
547.03	24.536
547.37	24.608
547.72	24.587
548.06	24.652
548.40	24.710
548.75	24.773
549.09	24.796
549.43	24.957
549.77	24.985
550.12	25.137
550.46	25.138
550.80	25.271
551.14	25.424
551.49	25.514
551.83	25.701
552.17	25.885
552.51	25.982
552.85	26.166
553.20	26.318
553.54	26.550
553.88	26.749
554.22	26.931
554.56	27.170
554.91	27.511
555.25	27.679
555.59	27.850
555.93	28.116
556.27	28.425
556.62	28.669
556.96	28.954
557.30	29.216
557.64	29.405
557.98	29.745
558.32	30.024
558.67	30.249
559.01	30.620
559.35	30.844
559.69	31.129
560.03	31.379
560.37	31.687
560.71	31.907
561.05	32.128
561.40	32.418
561.74	32.690
562.08	32.883
562.42	33.135
562.76	33.318
563.10	33.553
563.44	33.749
563.78	33.974
564.12	34.151
564.46	34.351
564.81	34.499
565.15	34.604
565.49	34.738
565.83	34.886
566.17	35.059
566.51	35.175
566.85	35.263
567.19	35.343
567.53	35.383
567.87	35.534
568.21	35.623
568.55	35.543
568.89	35.699
569.23	35.689
569.57	35.723
569.91	35.727
570.25	35.672
570.59	35.687
570.93	35.711
571.27	35.708
571.61	35.604
571.95	35.593
572.29	35.523
572.63	35.438
572.97	35.383
573.31	35.340
573.65	35.246
573.99	35.098
574.33	35.058
574.67	34.961
575.01	34.816
575.35	34.649
575.69	34.612
576.03	34.537
576.37	34.327
576.71	34.216
577.05	34.144
577.39	34.026
577.73	33.753
578.06	33.687
578.40	33.432
578.74	33.336
579.08	33.091
579.42	32.943
579.76	32.716
580.10	32.518
580.44	32.292
580.78	32.133
581.12	31.932
581.45	31.737
581.79	31.452
582.13	31.374
582.47	31.142
582.81	30.906
583.15	30.714
583.49	30.570
583.83	30.409
584.16	30.291
584.50	30.069
584.84	29.955
585.18	29.769
585.52	29.623
585.86	29.442
586.19	29.296
586.53	29.164
586.87	29.024
587.21	28.807
587.55	28.633
587.88	28.488
588.22	28.342
588.56	28.120
588.90	27.953
589.24	27.764
589.57	27.587
589.91	27.347
590.25	27.037
590.59	26.912
590.92	26.640
591.26	26.427
591.60	26.140
591.94	25.902
592.27	25.648
592.61	25.362
592.95	25.050
593.29	24.754
593.62	24.490
593.96	24.167
594.30	23.835
594.64	23.493
594.97	23.138
595.31	22.762
595.65	22.336
595.98	21.969
596.32	21.452
596.66	21.017
597.00	20.569
597.33	20.133
597.67	19.611
598.01	19.166
598.34	18.677
598.68	18.237
599.02	17.696
599.35	17.255
599.69	16.843
600.03	16.407
600.36	16.068
600.70	15.639
601.03	15.262
601.37	14.938
601.71	14.584
602.04	14.257
602.38	13.961
602.72	13.650
603.05	13.422
603.39	13.124
603.72	12.864
604.06	12.501
604.40	12.251
604.73	11.922
605.07	11.644
605.40	11.344
605.74	11.037
606.08	10.706
606.41	10.430
606.75	10.091
607.08	9.789
607.42	9.498
607.75	9.173
608.09	8.862
608.42	8.540
608.76	8.264
609.10	7.970
609.43	7.659
609.77	7.418
610.10	7.066
610.44	6.820
610.77	6.502
611.11	6.220
611.44	5.948
611.78	5.715
612.11	5.458
612.45	5.220
612.78	4.967
613.12	4.735
613.45	4.515
613.79	4.292
614.12	4.100
614.46	3.868
614.79	3.673
615.13	3.536
615.46	3.401
615.79	3.197
616.13	3.052
616.46	2.915
616.80	2.794
617.13	2.671
617.47	2.560
617.80	2.484
618.13	2.355
618.47	2.273
618.80	2.180
619.14	2.122
619.47	2.007
619.81	1.950
620.14	1.891
620.47	1.825
620.81	1.776
621.14	1.723
621.47	1.672
621.81	1.623
622.14	1.557
622.48	1.489
622.81	1.475
623.14	1.436
623.48	1.381
623.81	1.360
624.14	1.306
624.48	1.290
624.81	1.265
625.14	1.221
625.48	1.224
625.81	1.204
626.14	1.196
626.48	1.170
626.81	1.189
627.14	1.210
627.48	1.208
627.81	1.209
628.14	1.263
628.47	1.238
628.81	1.233
629.14	1.274
629.47	1.333
629.81	1.341
630.14	1.408
630.47	1.441
630.80	1.517
631.14	1.570
631.47	1.629
631.80	1.708
632.13	1.803
632.47	1.897
632.80	1.993
633.13	2.095
633.46	2.225
633.79	2.346
634.13	2.490
634.46	2.639
634.79	2.810
635.12	2.964
635.45	3.150
635.79	3.365
636.12	3.520
636.45	3.708
636.78	3.924
637.11	4.159
637.45	4.377
637.78	4.643
638.11	4.853
638.44	5.175
638.77	5.412
639.10	5.659
639.44	5.976
639.77	6.212
640.10	6.502
640.43	6.767
640.76	7.079
641.09	7.391
641.42	7.661
641.75	7.986
642.08	8.266
642.42	8.546
642.75	8.849
643.08	9.157
643.41	9.422
643.74	9.686
644.07	9.998
644.40	10.290
644.73	10.522
645.06	10.837
645.39	11.091
645.72	11.373
646.05	11.628
646.38	11.816
646.72	12.042
647.05	12.291
647.38	12.524
647.71	12.742
648.04	12.925
648.37	13.073
648.70	13.196
649.03	13.389
649.36	13.525
649.69	13.604
650.02	13.686
650.35	13.809
650.68	13.865
651.01	13.860
651.34	13.871
651.67	13.889
652.00	13.845
652.33	13.788
652.66	13.692
652.99	13.606
653.31	13.474
653.64	13.293
653.97	13.173
654.30	12.906
654.63	12.691
654.96	12.423
655.29	12.182
655.62	11.914
655.95	11.624
656.28	11.304
656.61	11.056
656.94	10.660
657.27	10.404
657.60	10.115
657.92	9.822
658.25	9.502
658.58	9.248
658.91	8.970
659.24	8.761
659.57	8.481
659.90	8.247
660.23	8.048
660.55	7.794
660.88	7.579
661.21	7.386
661.54	7.179
661.87	7.034
662.20	6.816
662.52	6.638
662.85	6.447
663.18	6.258
663.51	6.066
663.84	5.899
664.16	5.750
664.49	5.625
664.82	5.410
665.15	5.261
665.48	5.178
665.80	5.003
666.13	4.883
666.46	4.781
666.79	4.624
667.12	4.502
667.44	4.415
667.77	4.279
668.10	4.191
668.43	4.126
668.75	3.992
669.08	3.909
669.41	3.803
669.73	3.750
670.06	3.696
670.39	3.587
670.72	3.510
671.04	3.470
671.37	3.409
671.70	3.347
672.02	3.302
672.35	3.265
672.68	3.220
673.00	3.143
673.33	3.116
673.66	3.107
673.98	3.081
674.31	3.028
674.64	2.974
674.96	2.922
675.29	2.956
675.62	2.927
675.94	2.904
676.27	2.859
676.60	2.868
676.92	2.848
677.25	2.820
677.58	2.809
677.90	2.815
678.23	2.765
678.55	2.800
678.88	2.794
679.21	2.750
679.53	2.757
679.86	2.733
680.18	2.685
680.51	2.647
680.83	2.648
681.16	2.642
681.49	2.634
681.81	2.606
682.14	2.582
682.46	2.584
682.79	2.511
683.11	2.475
683.44	2.500
683.76	2.481
684.09	2.471
684.41	2.425
684.74	2.421
685.06	2.382
685.39	2.382
685.71	2.359
686.04	2.311
686.36	2.315
686.69	2.313
687.01	2.309
687.34	2.253
687.66	2.275
687.99	2.206
688.31	2.208
688.64	2.202
688.96	2.147
689.29	2.143
689.61	2.109
689.93	2.087
690.26	2.045
690.58	2.002
690.91	1.992
691.23	1.930
691.56	1.902
691.88	1.840
692.20	1.787
692.53	1.743
692.85	1.683
693.18	1.659
693.50	1.607
693.82	1.535
694.15	1.465
694.47	1.410
694.79	1.375
695.12	1.299
695.44	1.258
695.76	1.155
696.09	1.109
696.41	1.028
696.73	0.960
697.06	0.900
697.38	0.808
697.70	0.772
698.03	0.734
698.35	0.636
698.67	0.622
699.00	0.554
699.32	0.455
699.64	0.421
699.97	0.409
700.29	0.347
700.61	0.314
700.93	0.238
701.26	0.238
701.58	0.227
701.90	0.155
702.22	0.094
702.55	0.093
702.87	0.085
703.19	0.034
703.51	0.000
703.84	-0.024
704.16	0.008
704.48	-0.032
704.80	-0.076
705.13	-0.068
705.45	-0.124
705.77	-0.117
706.09	-0.107
706.41	-0.133
706.74	-0.130
707.06	-0.184
707.38	-0.153
707.70	-0.176
708.02	-0.181
708.34	-0.127
708.67	-0.187
708.99	-0.165
709.31	-0.218
709.63	-0.206
709.95	-0.230
710.27	-0.196
710.59	-0.204
710.92	-0.234
711.24	-0.210
711.56	-0.222
711.88	-0.271
712.20	-0.274
712.52	-0.252
712.84	-0.261
713.16	-0.239
713.48	-0.226
713.80	-0.251
714.12	-0.245
714.45	-0.278
714.77	-0.287
715.09	-0.281
715.41	-0.294
715.73	-0.333
716.05	-0.279
716.37	-0.256
716.69	-0.292
717.01	-0.319
717.33	-0.339
717.65	-0.333
717.97	-0.318
718.29	-0.295
718.61	-0.333
718.93	-0.316
719.25	-0.371
719.57	-0.271
719.89	-0.362
720.21	-0.384
720.53	-0.412
720.85	-0.403
721.17	-0.451
721.49	-0.388
721.81	-0.407
722.13	-0.394
722.45	-0.448
722.77	-0.402
723.09	-0.493
723.41	-0.415
723.72	-0.480
724.04	-0.450
724.36	-0.537
724.68	-0.502
725.00	-0.560
725.32	-0.460
725.64	-0.522
725.96	-0.593
726.28	-0.517
726.60	-0.474
726.91	-0.483
727.23	-0.587
727.55	-0.549
727.87	-0.557
728.19	-0.642
728.51	-0.581
728.83	-0.525
729.14	-0.576
729.46	-0.606
729.78	-0.672
730.10	-0.648
730.42	-0.643
730.74	-0.524
731.05	-0.708
731.37	-0.615
731.69	-0.727
732.01	-0.684
732.33	-0.659
732.64	-0.756
732.96	-0.662
733.28	-0.593
733.60	-0.754
733.92	-0.698
734.23	-0.753
734.55	-0.715
734.87	-0.718
735.19	-0.628
735.50	-0.721
735.82	-0.663
736.14	-0.646
736.45	-0.659
736.77	-0.684
737.09	-0.734
737.41	-0.638
737.72	-0.719
738.04	-0.729
738.36	-0.689
738.67	-0.687
738.99	-0.658
739.31	-0.706
739.63	-0.649
739.94	-0.666
740.26	-0.760
740.58	-0.741
740.89	-0.689
741.21	-0.665
741.52	-0.681
741.84	-0.681
742.16	-0.686
742.47	-0.657
742.79	-0.666
743.11	-0.676
743.42	-0.602
743.74	-0.598
744.05	-0.674
744.37	-0.732
744.69	-0.680
745.00	-0.628
745.32	-0.641
745.63	-0.575
745.95	-0.633
746.27	-0.583
746.58	-0.654
746.90	-0.529
747.21	-0.661
747.53	-0.551
747.84	-0.593
748.16	-0.592
748.47	-0.556
748.79	-0.612
749.10	-0.592
749.42	-0.616
749.74	-0.535
750.05	-0.608
750.37	-0.486
750.68	-0.636
751.00	-0.538
751.31	-0.586
751.62	-0.576
751.94	-0.529
752.25	-0.521
752.57	-0.520
752.88	-0.571
753.20	-0.542
753.51	-0.513
753.83	-0.490
754.14	-0.520
754.46	-0.526
754.77	-0.490
755.08	-0.521
755.40	-0.531
755.71	-0.494
756.03	-0.525
756.34	-0.495
756.66	-0.500
756.97	-0.520
757.28	-0.454
757.60	-0.509
757.91	-0.532
758.22	-0.443
758.54	-0.513
758.85	-0.595
759.17	-0.557
759.48	-0.518
759.79	-0.506
760.11	-0.528
760.42	-0.453
760.73	-0.538
761.05	-0.511
761.36	-0.526
761.67	-0.489
761.99	-0.472
762.30	-0.487
762.61	-0.436
762.92	-0.453
763.24	-0.466
763.55	-0.503
763.86	-0.522
764.18	-0.536
764.49	-0.472
764.80	-0.431
765.11	-0.439
765.43	-0.475
765.74	-0.510
766.05	-0.402
766.36	-0.431
766.68	-0.466
766.99	-0.472
767.30	-0.455
767.61	-0.454
767.93	-0.471
768.24	-0.377
768.55	-0.476
768.86	-0.442
769.17	-0.442
769.49	-0.474
769.80	-0.403
770.11	-0.441
770.42	-0.456
770.73	-0.501
771.04	-0.417
771.36	-0.497
771.67	-0.493
771.98	-0.443
772.29	-0.466
772.60	-0.459
772.91	-0.437
773.22	-0.517
773.54	-0.464
773.85	-0.505
774.16	-0.463
774.47	-0.491
774.78	-0.478
775.09	-0.526
775.40	-0.541
775.71	-0.500
776.02	-0.445
776.33	-0.468
776.64	-0.446
776.96	-0.546
777.27	-0.503
777.58	-0.541
777.89	-0.535
778.20	-0.590
778.51	-0.535
778.82	-0.530
779.13	-0.527
779.44	-0.552
779.75	-0.565
780.06	-0.550
780.37	-0.542
780.68	-0.571
780.99	-0.497
781.30	-0.509
781.61	-0.538
781.92	-0.530
782.23	-0.579
782.54	-0.638
782.85	-0.550
783.16	-0.559
783.47	-0.630
783.78	-0.584
784.08	-0.593
784.39	-0.555
784.70	-0.676
785.01	-0.595
785.32	-0.585
785.63	-0.511
785.94	-0.608
786.25	-0.628
786.56	-0.613
786.87	-0.628
787.18	-0.690
787.48	-0.646
787.79	-0.711
788.10	-0.634
788.41	-0.636
788.72	-0.643
789.03	-0.780
789.34	-0.743
789.64	-0.720
789.95	-0.833
790.26	-0.779
790.57	-0.692
790.88	-0.835
791.19	-0.708
791.49	-0.735
791.80	-0.739
792.11	-0.722
792.42	-0.821
792.73	-0.773
793.03	-0.761
793.34	-0.785
793.65	-0.821
793.96	-0.938
794.27	-0.789
794.57	-0.926
794.88	-0.830
795.19	-0.885
795.50	-0.888
795.80	-0.947
796.11	-0.842
796.42	-0.908
796.72	-0.951
797.03	-1.059
797.34	-0.981
797.65	-1.046
797.95	-0.925
798.26	-0.926
798.57	-0.966
798.87	-0.860
799.18	-0.954
799.49	-1.030
799.79	-1.054
800.10	-1.106
800.41	-1.075
800.71	-0.843
801.02	-1.136
801.33	-1.041
801.63	-0.986
801.94	-1.163
802.24	-1.052
802.55	-1.076
802.86	-1.168
803.16	-1.031
803.47	-1.193
803.77	-1.289
804.08	-1.107
804.39	-1.147
804.69	-1.279
805.00	-1.169
805.30	-1.223
805.61	-1.237
805.91	-1.129
806.22	-1.119
806.53	-1.293
806.83	-1.379
807.14	-1.252
807.44	-1.268
807.75	-1.364
808.05	-1.385
808.36	-1.194
808.66	-1.365
808.97	-1.404
809.27	-1.462
809.58	-1.316
809.88	-1.332
810.19	-1.430
810.49	-1.458
810.80	-1.414
811.10	-1.388
811.41	-1.504
811.71	-1.451
812.01	-1.522
812.32	-1.482
812.62	-1.514
812.93	-1.636
813.23	-1.599
813.54	-1.484
813.84	-1.672
814.14	-1.624
814.45	-1.703
814.75	-1.657
815.06	-1.483
815.36	-1.574
815.66	-1.674
815.97	-1.726
816.27	-1.424
816.58	-1.791
816.88	-1.714
817.18	-1.939
817.49	-1.678
817.79	-1.991
818.09	-1.888
818.40	-1.609
818.70	-1.941
819.00	-1.941
819.31	-1.908
819.61	-1.872
819.91	-2.014
820.21	-2.053
820.52	-2.225
820.82	-2.115
821.12	-2.225
821.43	-2.143
821.73	-2.125
822.03	-2.234
822.33	-2.196
822.64	-2.338
822.94	-2.420
823.24	-2.448
823.54	-2.582
823.85	-2.537
824.15	-2.365
824.45	-2.351
824.75	-2.589
825.05	-2.430
825.36	-2.790
825.66	-2.676
825.96	-2.611
826.26	-2.782
826.56	-2.916
826.87	-2.769
827.17	-2.910
827.47	-2.899
827.77	-2.970
828.07	-3.202
828.37	-3.257
828.67	-3.074
828.98	-3.102
829.28	-3.149
829.58	-3.231
829.88	-3.162
830.18	-3.061
830.48	-3.449
830.78	-3.610
831.08	-3.964
831.38	-4.020
831.69	-3.941
831.99	-3.628
832.29	-3.646
832.59	-3.995
832.89	-4.218
833.19	-4.290
833.49	-4.261
833.79	-4.479
834.09	-4.418
834.39	-4.211
834.69	-4.264
834.99	-4.034
835.29	-4.376
835.59	-4.733
835.89	-4.336
836.19	-4.556
836.49	-4.770
836.79	-5.257
837.09	-5.189
837.39	-5.768
837.69	-5.193
837.99	-5.189
838.29	-5.935
838.59	-6.358
838.89	-6.510
839.19	-6.271
839.49	-6.529
839.79	-6.839
840.09	-7.261
840.39	-7.286
840.68	-6.448
840.98	-7.841
841.28	-6.582
841.58	-7.088
841.88	-7.182
842.18	-7.387
842.48	-8.245
842.78	-7.403
843.08	-8.007
843.37	-8.096
843.67	-8.596
843.97	-8.731
844.27	-8.676
844.57	-9.198
844.87	-10.161
845.16	-9.877
845.46	-9.944
845.76	-8.778
846.06	-9.990
846.36	-11.212
846.66	-11.528
846.95	-10.507
847.25	-12.311
847.55	-11.048
847.85	-11.748
848.14	-11.539
848.44	-12.594
848.74	-13.617
849.04	-11.468
849.33	-12.862
849.63	-13.355
849.93	-14.806
850.23	-15.120
850.52	-14.320
850.82	-14.102
851.12	-16.540
851.42	-16.464
851.71	-16.800
852.01	-17.057
852.31	-16.821
852.60	-17.064
852.90	-19.303
853.20	-17.730
853.49	-19.399
853.79	-20.160
854.09	-18.556
854.38	-19.622
854.68	-19.726
854.98	-21.767
855.27	-20.700
855.57	-19.825
855.86	-21.718
856.16	-21.567
856.46	-21.190
856.75	-21.556
857.05	-19.905
857.34	-24.116
857.64	-20.086
857.94	-25.759
858.23	-23.722
858.53	-23.562
858.82	-24.833
859.12	-22.885
859.41	-21.234
859.71	-24.793
860.01	-26.487
860.30	-20.879
860.60	-27.131
860.89	-25.298
861.19	-24.980
861.48	-22.096
861.78	-25.797
862.07	-26.763
862.37	-23.303
862.66	-24.419
862.96	-24.928
863.25	-25.205
863.55	-28.087
863.84	-24.695
864.13	-27.586
864.43	-24.545
864.72	-26.039
865.02	-26.018
865.31	-26.444
865.61	-23.434
865.90	-27.360
866.19	-26.711
866.49	-24.906
866.78	-23.177
867.08	-25.932
867.37	-27.714
867.66	-28.154
867.96	-22.181
868.25	-25.093
868.55	-25.592
868.84	-24.526
869.13	-27.201
869.43	-27.341
869.72	-25.619
870.01	-27.955
870.31	-25.093
870.60	-27.334
870.89	-27.015
871.19	-26.029
871.48	-28.366
871.77	-26.405
872.07	-27.041
872.36	-26.118
872.65	-24.046
872.94	-25.331
873.24	-25.772
873.53	-25.846
873.82	-27.348
874.11	-26.245
874.41	-27.902
874.70	-27.562
>>>>>End Processed Spectral Data<<<<<
