SpectraSuite Data File
++++++++++++++++++++++++++++++++++++
Date: Tue Jun 23 15:28:47 BST 2015
User: mpfc3
Dark Spectrum Present: No
Reference Spectrum Present: No
Number of Sampled Component Spectra: 1
Spectrometers: USB2E3636
Integration Time (usec): 30000 (USB2E3636)
Spectra Averaged: 100 (USB2E3636)
Boxcar Smoothing: 0 (USB2E3636)
Correct for Electrical Dark: No (USB2E3636)
Strobe/Lamp Enabled: No (USB2E3636)
Correct for Detector Non-linearity: No (USB2E3636)
Correct for Stray Light: No (USB2E3636)
Number of Pixels in Processed Spectrum: 2048
>>>>>Begin Processed Spectral Data<<<<<
180.28	0.00
180.65	145.84
181.02	146.48
181.39	147.47
181.77	148.67
182.14	149.85
182.51	149.81
182.88	150.64
183.25	150.69
183.63	151.33
184.00	151.38
184.37	154.01
184.74	152.03
185.11	152.06
185.49	152.08
185.86	152.18
186.23	152.09
186.60	151.97
186.97	151.94
187.35	151.70
187.72	152.11
188.09	152.13
188.46	151.78
188.83	151.07
189.20	157.29
189.58	171.75
189.95	171.79
190.32	171.98
190.69	171.98
191.06	171.95
191.43	172.42
191.81	172.23
192.18	172.39
192.55	171.70
192.92	172.08
193.29	172.58
193.66	172.23
194.03	172.02
194.41	172.08
194.78	172.26
195.15	172.14
195.52	172.05
195.89	172.96
196.26	172.68
196.63	172.59
197.01	173.21
197.38	172.08
197.75	173.08
198.12	172.39
198.49	172.41
198.86	172.98
199.23	172.34
199.60	172.08
199.98	172.34
200.35	172.66
200.72	172.29
201.09	172.75
201.46	173.12
201.83	173.21
202.20	172.74
202.57	172.97
202.94	172.95
203.31	172.86
203.69	172.61
204.06	174.63
204.43	172.58
204.80	172.60
205.17	172.94
205.54	172.69
205.91	173.18
206.28	172.33
206.65	172.70
207.02	172.58
207.39	172.34
207.76	172.45
208.14	173.01
208.51	172.45
208.88	172.50
209.25	172.82
209.62	172.25
209.99	172.69
210.36	172.76
210.73	172.87
211.10	172.99
211.47	172.24
211.84	172.17
212.21	173.06
212.58	172.22
212.95	172.06
213.32	172.45
213.69	172.40
214.06	172.18
214.43	172.68
214.80	171.88
215.17	171.75
215.55	172.64
215.92	172.11
216.29	172.05
216.66	171.81
217.03	172.27
217.40	172.03
217.77	171.78
218.14	171.94
218.51	171.77
218.88	172.24
219.25	172.10
219.62	171.63
219.99	172.13
220.36	171.72
220.73	173.11
221.10	171.68
221.47	172.51
221.84	171.89
222.21	171.40
222.58	171.68
222.95	171.66
223.32	171.82
223.69	171.27
224.06	171.79
224.43	171.59
224.80	171.46
225.17	171.53
225.54	171.13
225.91	171.70
226.27	182.27
226.64	170.99
227.01	171.66
227.38	172.08
227.75	171.34
228.12	171.13
228.49	171.52
228.86	170.96
229.23	171.16
229.60	170.81
229.97	170.80
230.34	171.38
230.71	171.20
231.08	171.12
231.45	170.94
231.82	170.51
232.19	170.70
232.56	171.11
232.93	170.74
233.30	170.65
233.66	170.97
234.03	170.89
234.40	170.94
234.77	170.80
235.14	170.22
235.51	170.75
235.88	171.18
236.25	170.77
236.62	170.77
236.99	170.91
237.36	170.41
237.73	170.21
238.09	170.17
238.46	170.63
238.83	170.03
239.20	170.35
239.57	170.34
239.94	170.07
240.31	170.51
240.68	169.60
241.05	170.25
241.41	170.77
241.78	170.58
242.15	169.52
242.52	170.11
242.89	170.11
243.26	170.30
243.63	170.23
244.00	170.44
244.36	170.19
244.73	170.16
245.10	170.27
245.47	170.38
245.84	169.91
246.21	169.80
246.58	170.41
246.94	170.22
247.31	169.79
247.68	170.15
248.05	169.71
248.42	169.18
248.79	169.32
249.15	170.24
249.52	170.10
249.89	169.31
250.26	170.87
250.63	170.18
251.00	170.01
251.36	170.19
251.73	169.44
252.10	170.15
252.47	169.36
252.84	170.19
253.20	169.65
253.57	170.05
253.94	169.19
254.31	169.47
254.68	169.21
255.05	168.93
255.41	169.31
255.78	170.07
256.15	169.39
256.52	169.26
256.88	169.36
257.25	169.15
257.62	169.72
257.99	168.98
258.36	169.74
258.72	169.05
259.09	168.74
259.46	169.50
259.83	169.37
260.19	169.30
260.56	169.25
260.93	168.74
261.30	169.44
261.67	169.30
262.03	169.09
262.40	169.06
262.77	169.57
263.14	169.27
263.50	169.25
263.87	168.86
264.24	168.95
264.61	168.82
264.97	169.17
265.34	168.99
265.71	169.52
266.07	168.86
266.44	169.25
266.81	169.17
267.18	168.81
267.54	169.01
267.91	169.86
268.28	169.32
268.64	169.09
269.01	169.00
269.38	169.00
269.75	169.34
270.11	168.95
270.48	168.83
270.85	169.70
271.21	169.57
271.58	169.08
271.95	169.07
272.32	169.07
272.68	168.67
273.05	168.83
273.42	168.82
273.78	169.42
274.15	169.09
274.52	169.18
274.88	168.38
275.25	169.48
275.62	168.86
275.98	169.22
276.35	168.95
276.72	170.12
277.08	168.78
277.45	169.68
277.82	169.65
278.18	168.89
278.55	168.71
278.92	168.62
279.28	169.24
279.65	168.79
280.01	168.54
280.38	169.14
280.75	169.25
281.11	168.99
281.48	168.49
281.85	169.06
282.21	169.13
282.58	169.31
282.95	168.58
283.31	169.03
283.68	169.07
284.04	168.94
284.41	169.31
284.78	169.05
285.14	171.74
285.51	170.66
285.87	169.23
286.24	169.27
286.61	169.69
286.97	169.18
287.34	168.53
287.70	169.23
288.07	168.79
288.44	169.18
288.80	169.35
289.17	168.49
289.53	168.74
289.90	169.91
290.26	169.46
290.63	169.37
291.00	169.23
291.36	169.52
291.73	169.59
292.09	169.23
292.46	168.82
292.82	169.06
293.19	169.07
293.56	169.33
293.92	169.40
294.29	169.66
294.65	169.41
295.02	169.15
295.38	169.77
295.75	169.40
296.11	168.90
296.48	169.55
296.84	169.61
297.21	169.28
297.57	169.04
297.94	169.53
298.30	169.33
298.67	168.94
299.04	169.35
299.40	168.71
299.77	169.73
300.13	169.66
300.50	169.28
300.86	169.64
301.23	169.23
301.59	169.64
301.96	169.66
302.32	169.79
302.69	169.21
303.05	170.16
303.42	169.99
303.78	169.80
304.14	170.20
304.51	170.02
304.87	169.86
305.24	170.18
305.60	169.92
305.97	170.19
306.33	169.82
306.70	169.54
307.06	170.45
307.43	171.47
307.79	169.78
308.16	169.63
308.52	169.68
308.88	169.96
309.25	170.30
309.61	170.36
309.98	170.15
310.34	170.29
310.71	170.63
311.07	170.71
311.44	170.50
311.80	170.51
312.16	171.36
312.53	170.81
312.89	170.67
313.26	170.89
313.62	170.86
313.98	171.58
314.35	170.67
314.71	172.04
315.08	171.18
315.44	171.76
315.80	171.10
316.17	171.18
316.53	173.30
316.90	171.48
317.26	172.51
317.62	171.90
317.99	172.19
318.35	172.56
318.72	172.16
319.08	171.99
319.44	172.43
319.81	172.90
320.17	173.09
320.53	173.57
320.90	172.62
321.26	173.28
321.62	173.88
321.99	173.23
322.35	174.33
322.72	173.28
323.08	173.38
323.44	173.94
323.81	173.78
324.17	173.55
324.53	174.57
324.90	174.28
325.26	174.31
325.62	174.89
325.99	174.20
326.35	174.27
326.71	174.66
327.08	176.41
327.44	176.02
327.80	176.02
328.16	176.73
328.53	174.63
328.89	174.08
329.25	174.77
329.62	180.38
329.98	180.43
330.34	178.09
330.71	178.20
331.07	178.38
331.43	178.78
331.79	179.90
332.16	180.03
332.52	179.43
332.88	179.27
333.24	179.83
333.61	179.52
333.97	180.36
334.33	180.61
334.70	181.17
335.06	181.27
335.42	181.75
335.78	183.21
336.15	182.74
336.51	182.10
336.87	183.35
337.23	184.29
337.60	183.64
337.96	183.20
338.32	184.89
338.68	184.52
339.04	185.03
339.41	185.72
339.77	186.58
340.13	186.25
340.49	186.88
340.86	186.74
341.22	187.09
341.58	188.28
341.94	188.12
342.30	188.98
342.67	188.85
343.03	189.22
343.39	190.17
343.75	189.86
344.11	191.16
344.48	191.46
344.84	192.42
345.20	192.77
345.56	192.79
345.92	193.73
346.28	194.59
346.65	196.08
347.01	195.15
347.37	195.43
347.73	195.74
348.09	197.28
348.45	197.14
348.82	198.56
349.18	199.33
349.54	199.40
349.90	199.54
350.26	199.87
350.62	200.77
350.98	200.85
351.35	201.59
351.71	203.04
352.07	202.75
352.43	202.71
352.79	204.76
353.15	205.07
353.51	206.55
353.87	206.42
354.24	206.92
354.60	206.95
354.96	208.10
355.32	209.24
355.68	209.74
356.04	210.16
356.40	212.15
356.76	211.97
357.12	212.11
357.48	213.25
357.85	212.97
358.21	214.15
358.57	215.24
358.93	216.22
359.29	217.35
359.65	218.06
360.01	218.29
360.37	219.71
360.73	220.44
361.09	220.97
361.45	221.70
361.81	222.41
362.17	223.81
362.53	224.90
362.89	224.95
363.25	225.61
363.62	227.25
363.98	227.82
364.34	229.46
364.70	230.37
365.06	230.93
365.42	231.62
365.78	233.07
366.14	233.89
366.50	234.69
366.86	235.83
367.22	236.64
367.58	237.42
367.94	238.11
368.30	239.28
368.66	240.40
369.02	242.85
369.38	242.67
369.74	242.99
370.10	245.84
370.46	247.64
370.82	247.10
371.18	247.49
371.54	248.79
371.90	250.52
372.26	251.82
372.62	252.65
372.98	253.84
373.33	253.81
373.69	255.19
374.05	257.25
374.41	257.48
374.77	260.66
375.13	259.81
375.49	262.09
375.85	262.43
376.21	265.44
376.57	265.12
376.93	268.09
377.29	268.89
377.65	270.10
378.01	271.33
378.37	272.86
378.73	273.76
379.08	275.96
379.44	276.37
379.80	277.36
380.16	278.46
380.52	281.54
380.88	282.31
381.24	281.77
381.60	285.89
381.96	287.22
382.32	288.38
382.67	289.84
383.03	289.94
383.39	292.27
383.75	293.38
384.11	294.11
384.47	296.30
384.83	298.47
385.19	298.45
385.54	300.36
385.90	301.04
386.26	303.49
386.62	304.03
386.98	306.29
387.34	306.97
387.70	309.99
388.05	309.07
388.41	313.37
388.77	314.45
389.13	315.67
389.49	317.26
389.85	318.83
390.20	320.59
390.56	323.33
390.92	325.92
391.28	324.17
391.64	329.21
391.99	329.01
392.35	329.66
392.71	334.36
393.07	333.66
393.43	334.37
393.78	337.10
394.14	339.94
394.50	342.41
394.86	341.67
395.22	343.59
395.57	345.30
395.93	347.46
396.29	353.30
396.65	352.94
397.00	356.45
397.36	357.01
397.72	354.88
398.08	360.05
398.43	361.85
398.79	365.40
399.15	367.16
399.51	372.01
399.86	369.83
400.22	366.97
400.58	373.57
400.94	376.66
401.29	380.43
401.65	382.72
402.01	383.51
402.37	381.90
402.72	389.76
403.08	394.54
403.44	393.44
403.79	393.55
404.15	395.31
404.51	396.90
404.86	400.83
405.22	407.77
405.58	404.78
405.94	408.85
406.29	411.59
406.65	410.81
407.01	412.19
407.36	416.76
407.72	417.93
408.08	419.41
408.43	423.73
408.79	425.41
409.15	427.51
409.50	427.46
409.86	425.87
410.22	431.34
410.57	436.91
410.93	437.93
411.29	447.40
411.64	439.08
412.00	449.75
412.35	453.23
412.71	450.65
413.07	455.80
413.42	455.62
413.78	461.80
414.14	459.19
414.49	466.87
414.85	466.48
415.20	476.85
415.56	479.58
415.92	475.34
416.27	476.85
416.63	486.02
416.98	486.80
417.34	490.91
417.70	495.32
418.05	493.80
418.41	496.22
418.76	507.24
419.12	498.77
419.47	510.42
419.83	500.79
420.19	517.40
420.54	517.73
420.90	517.02
421.25	519.81
421.61	525.49
421.96	517.45
422.32	536.92
422.67	535.38
423.03	536.04
423.39	543.22
423.74	548.71
424.10	548.00
424.45	551.59
424.81	547.08
425.16	554.40
425.52	560.13
425.87	556.40
426.23	566.21
426.58	563.20
426.94	572.64
427.29	588.90
427.65	582.98
428.00	579.10
428.36	586.53
428.71	589.88
429.07	587.72
429.42	593.19
429.78	596.56
430.13	609.99
430.49	600.20
430.84	612.20
431.19	615.86
431.55	607.88
431.90	621.52
432.26	619.49
432.61	629.49
432.97	629.94
433.32	628.15
433.68	638.94
434.03	638.77
434.39	646.82
434.74	644.84
435.09	652.92
435.45	653.50
435.80	665.58
436.16	655.49
436.51	664.86
436.86	670.99
437.22	674.14
437.57	691.47
437.93	694.53
438.28	694.78
438.63	692.46
438.99	700.55
439.34	717.69
439.70	698.13
440.05	697.02
440.40	723.23
440.76	721.44
441.11	724.09
441.47	756.08
441.82	747.25
442.17	745.72
442.53	747.62
442.88	748.28
443.23	757.41
443.59	746.56
443.94	765.03
444.29	762.96
444.65	772.29
445.00	772.98
445.35	774.24
445.71	781.73
446.06	789.43
446.41	777.33
446.77	784.64
447.12	803.48
447.47	795.63
447.83	818.92
448.18	813.93
448.53	792.63
448.89	809.71
449.24	813.73
449.59	847.97
449.94	827.39
450.30	817.15
450.65	825.25
451.00	862.47
451.36	856.67
451.71	845.27
452.06	859.14
452.41	869.79
452.77	864.56
453.12	891.85
453.47	890.50
453.82	898.83
454.18	855.83
454.53	892.82
454.88	885.49
455.23	910.26
455.59	884.32
455.94	910.18
456.29	924.37
456.64	902.99
457.00	900.13
457.35	934.86
457.70	913.41
458.05	943.25
458.40	959.15
458.76	973.01
459.11	968.78
459.46	949.85
459.81	949.77
460.16	959.12
460.52	1003.25
460.87	981.04
461.22	993.98
461.57	1005.52
461.92	985.91
462.28	1015.63
462.63	1045.28
462.98	1036.54
463.33	1049.94
463.68	1061.86
464.03	1047.56
464.38	1071.32
464.74	1057.95
465.09	1068.74
465.44	1104.88
465.79	1113.82
466.14	1094.36
466.49	1129.66
466.84	1136.74
467.20	1158.41
467.55	1170.36
467.90	1176.48
468.25	1176.32
468.60	1208.20
468.95	1182.70
469.30	1199.28
469.65	1225.35
470.00	1235.53
470.36	1259.78
470.71	1298.42
471.06	1296.20
471.41	1282.68
471.76	1317.40
472.11	1324.22
472.46	1346.27
472.81	1354.93
473.16	1380.91
473.51	1381.09
473.86	1405.84
474.21	1421.77
474.56	1454.53
474.91	1462.87
475.26	1468.61
475.62	1488.55
475.97	1529.78
476.32	1512.71
476.67	1528.99
477.02	1566.16
477.37	1592.37
477.72	1617.99
478.07	1624.78
478.42	1624.57
478.77	1656.82
479.12	1708.19
479.47	1704.50
479.82	1716.34
480.17	1754.32
480.52	1796.68
480.87	1795.59
481.22	1791.52
481.57	1822.59
481.92	1806.80
482.27	1858.16
482.62	1898.20
482.97	1898.14
483.32	1917.31
483.67	1918.29
484.02	1939.76
484.36	1954.04
484.71	1990.46
485.06	2006.41
485.41	2014.69
485.76	2050.78
486.11	2050.48
486.46	2065.03
486.81	2079.78
487.16	2085.49
487.51	2114.87
487.86	2139.89
488.21	2154.90
488.56	2175.71
488.91	2178.86
489.25	2205.72
489.60	2221.28
489.95	2229.12
490.30	2254.35
490.65	2265.30
491.00	2287.94
491.35	2292.14
491.70	2288.46
492.05	2321.35
492.39	2347.03
492.74	2350.19
493.09	2374.62
493.44	2381.40
493.79	2394.68
494.14	2411.47
494.49	2416.12
494.83	2429.47
495.18	2457.42
495.53	2464.44
495.88	2494.55
496.23	2512.35
496.58	2506.52
496.92	2518.08
497.27	2545.76
497.62	2565.49
497.97	2556.59
498.32	2586.28
498.67	2587.51
499.01	2619.74
499.36	2630.50
499.71	2637.18
500.06	2646.47
500.41	2676.41
500.75	2690.08
501.10	2701.18
501.45	2710.43
501.80	2722.89
502.14	2735.53
502.49	2747.85
502.84	2753.60
503.19	2787.95
503.53	2780.42
503.88	2803.82
504.23	2809.99
504.58	2819.68
504.92	2836.42
505.27	2844.81
505.62	2859.13
505.97	2865.01
506.31	2868.55
506.66	2895.40
507.01	2901.23
507.36	2918.03
507.70	2915.48
508.05	2931.01
508.40	2941.04
508.74	2950.69
509.09	2948.55
509.44	2953.68
509.79	2967.33
510.13	2976.73
510.48	2982.26
510.83	2998.58
511.17	2991.71
511.52	3004.67
511.87	3016.44
512.21	3017.11
512.56	3022.18
512.91	3029.45
513.25	3048.99
513.60	3033.83
513.95	3053.56
514.29	3051.78
514.64	3060.85
514.98	3063.09
515.33	3059.85
515.68	3071.38
516.02	3084.43
516.37	3074.94
516.72	3071.66
517.06	3100.74
517.41	3103.17
517.75	3092.60
518.10	3105.64
518.45	3102.97
518.79	3114.97
519.14	3119.60
519.48	3121.54
519.83	3124.78
520.18	3120.53
520.52	3132.87
520.87	3147.73
521.21	3141.47
521.56	3134.19
521.90	3140.65
522.25	3143.48
522.60	3142.20
522.94	3161.87
523.29	3171.90
523.63	3153.70
523.98	3156.79
524.32	3169.79
524.67	3170.03
525.01	3158.02
525.36	3158.20
525.70	3179.24
526.05	3193.48
526.39	3163.70
526.74	3181.13
527.08	3181.64
527.43	3187.14
527.77	3185.20
528.12	3196.90
528.46	3199.22
528.81	3203.04
529.15	3210.52
529.50	3225.68
529.84	3212.24
530.19	3222.83
530.53	3212.93
530.88	3208.19
531.22	3234.32
531.57	3230.92
531.91	3236.12
532.26	3235.99
532.60	3235.88
532.94	3234.63
533.29	3251.10
533.63	3255.77
533.98	3256.55
534.32	3270.82
534.67	3275.92
535.01	3268.20
535.35	3277.89
535.70	3272.31
536.04	3274.06
536.39	3287.59
536.73	3287.81
537.07	3299.00
537.42	3309.55
537.76	3312.97
538.11	3302.79
538.45	3314.81
538.79	3317.66
539.14	3332.48
539.48	3322.49
539.82	3329.68
540.17	3355.77
540.51	3356.03
540.85	3342.83
541.20	3352.19
541.54	3354.73
541.89	3356.24
542.23	3362.18
542.57	3376.61
542.92	3385.50
543.26	3384.77
543.60	3418.23
543.94	3414.72
544.29	3414.15
544.63	3402.41
544.97	3427.58
545.32	3436.69
545.66	3434.27
546.00	3443.63
546.35	3450.36
546.69	3461.75
547.03	3457.92
547.37	3462.55
547.72	3463.15
548.06	3484.13
548.40	3484.27
548.75	3490.52
549.09	3492.86
549.43	3506.50
549.77	3512.21
550.12	3499.46
550.46	3529.84
550.80	3516.82
551.14	3537.58
551.49	3552.02
551.83	3569.66
552.17	3550.80
552.51	3551.44
552.85	3559.19
553.20	3553.24
553.54	3568.91
553.88	3576.36
554.22	3571.09
554.56	3613.88
554.91	3596.83
555.25	3593.43
555.59	3613.64
555.93	3608.65
556.27	3605.99
556.62	3615.17
556.96	3626.23
557.30	3612.06
557.64	3617.76
557.98	3613.77
558.32	3635.02
558.67	3634.41
559.01	3636.18
559.35	3630.43
559.69	3636.76
560.03	3654.00
560.37	3666.21
560.71	3644.20
561.05	3655.17
561.40	3638.76
561.74	3662.39
562.08	3649.43
562.42	3650.71
562.76	3673.36
563.10	3663.76
563.44	3665.85
563.78	3670.38
564.12	3677.49
564.46	3673.25
564.81	3671.65
565.15	3675.81
565.49	3656.79
565.83	3670.45
566.17	3666.39
566.51	3660.00
566.85	3660.78
567.19	3666.55
567.53	3667.69
567.87	3675.95
568.21	3673.99
568.55	3658.06
568.89	3665.00
569.23	3669.74
569.57	3663.17
569.91	3661.77
570.25	3647.80
570.59	3675.02
570.93	3669.65
571.27	3660.16
571.61	3655.83
571.95	3662.31
572.29	3665.50
572.63	3681.84
572.97	3674.71
573.31	3663.16
573.65	3658.63
573.99	3657.36
574.33	3653.81
574.67	3664.16
575.01	3643.14
575.35	3654.21
575.69	3659.86
576.03	3669.45
576.37	3663.87
576.71	3668.15
577.05	3650.07
577.39	3647.17
577.73	3659.70
578.06	3668.55
578.40	3660.08
578.74	3650.48
579.08	3658.10
579.42	3665.33
579.76	3647.74
580.10	3661.80
580.44	3661.43
580.78	3663.00
581.12	3653.06
581.45	3671.17
581.79	3666.00
582.13	3647.04
582.47	3673.99
582.81	3663.86
583.15	3674.66
583.49	3666.65
583.83	3661.70
584.16	3666.59
584.50	3684.43
584.84	3681.57
585.18	3668.92
585.52	3664.17
585.86	3681.14
586.19	3676.37
586.53	3678.46
586.87	3672.57
587.21	3656.39
587.55	3692.07
587.88	3692.50
588.22	3682.97
588.56	3687.14
588.90	3681.85
589.24	3688.10
589.57	3685.85
589.91	3699.46
590.25	3688.32
590.59	3685.15
590.92	3700.54
591.26	3708.46
591.60	3702.99
591.94	3704.17
592.27	3699.34
592.61	3689.83
592.95	3705.19
593.29	3710.10
593.62	3709.38
593.96	3709.27
594.30	3728.75
594.64	3725.46
594.97	3732.86
595.31	3721.90
595.65	3720.84
595.98	3723.21
596.32	3716.11
596.66	3729.41
597.00	3734.29
597.33	3741.86
597.67	3716.25
598.01	3740.44
598.34	3737.59
598.68	3728.63
599.02	3720.06
599.35	3720.19
599.69	3735.02
600.03	3732.79
600.36	3727.80
600.70	3736.50
601.03	3729.46
601.37	3746.18
601.71	3746.39
602.04	3732.17
602.38	3717.68
602.72	3734.82
603.05	3746.53
603.39	3728.75
603.72	3733.90
604.06	3729.66
604.40	3731.61
604.73	3715.79
605.07	3733.31
605.40	3724.01
605.74	3725.34
606.08	3712.62
606.41	3712.07
606.75	3725.79
607.08	3703.94
607.42	3711.82
607.75	3710.16
608.09	3697.61
608.42	3700.36
608.76	3684.46
609.10	3706.31
609.43	3683.30
609.77	3668.99
610.10	3673.56
610.44	3666.58
610.77	3651.37
611.11	3656.80
611.44	3643.18
611.78	3643.31
612.11	3629.46
612.45	3627.26
612.78	3614.21
613.12	3617.02
613.45	3607.19
613.79	3579.36
614.12	3574.25
614.46	3572.49
614.79	3562.96
615.13	3561.48
615.46	3553.38
615.79	3544.86
616.13	3531.01
616.46	3516.79
616.80	3524.02
617.13	3512.58
617.47	3496.87
617.80	3494.87
618.13	3508.07
618.47	3487.70
618.80	3485.06
619.14	3473.00
619.47	3468.33
619.81	3473.46
620.14	3471.70
620.47	3469.85
620.81	3459.11
621.14	3460.85
621.47	3459.83
621.81	3470.30
622.14	3461.58
622.48	3452.82
622.81	3458.61
623.14	3470.91
623.48	3457.40
623.81	3456.16
624.14	3468.09
624.48	3461.66
624.81	3456.68
625.14	3454.35
625.48	3461.83
625.81	3454.42
626.14	3478.07
626.48	3469.76
626.81	3491.62
627.14	3463.88
627.48	3457.37
627.81	3465.62
628.14	3480.25
628.47	3496.08
628.81	3505.39
629.14	3501.63
629.47	3516.81
629.81	3528.27
630.14	3514.62
630.47	3502.14
630.80	3521.99
631.14	3531.76
631.47	3539.99
631.80	3528.05
632.13	3542.70
632.47	3543.82
632.80	3558.12
633.13	3556.65
633.46	3552.70
633.79	3558.26
634.13	3568.99
634.46	3570.76
634.79	3580.69
635.12	3582.27
635.45	3595.52
635.79	3591.46
636.12	3598.93
636.45	3599.76
636.78	3585.34
637.11	3610.32
637.45	3607.91
637.78	3602.41
638.11	3603.87
638.44	3604.24
638.77	3620.29
639.10	3616.94
639.44	3605.38
639.77	3616.51
640.10	3621.46
640.43	3607.44
640.76	3629.00
641.09	3617.63
641.42	3612.88
641.75	3616.73
642.08	3619.91
642.42	3618.60
642.75	3609.04
643.08	3623.79
643.41	3616.40
643.74	3621.10
644.07	3613.25
644.40	3611.82
644.73	3601.15
645.06	3603.26
645.39	3616.18
645.72	3609.67
646.05	3592.11
646.38	3604.70
646.72	3609.53
647.05	3589.00
647.38	3605.68
647.71	3597.85
648.04	3601.09
648.37	3594.36
648.70	3575.85
649.03	3591.34
649.36	3588.75
649.69	3577.03
650.02	3586.64
650.35	3583.15
650.68	3579.61
651.01	3559.30
651.34	3572.58
651.67	3552.86
652.00	3572.80
652.33	3539.74
652.66	3550.91
652.99	3539.96
653.31	3553.82
653.64	3529.39
653.97	3526.52
654.30	3540.47
654.63	3510.10
654.96	3501.10
655.29	3522.70
655.62	3500.88
655.95	3507.72
656.28	3501.33
656.61	3492.23
656.94	3493.21
657.27	3485.92
657.60	3473.45
657.92	3479.46
658.25	3468.32
658.58	3463.62
658.91	3455.90
659.24	3450.77
659.57	3441.69
659.90	3433.99
660.23	3427.43
660.55	3433.14
660.88	3431.63
661.21	3409.84
661.54	3410.13
661.87	3410.09
662.20	3396.91
662.52	3395.19
662.85	3402.19
663.18	3370.97
663.51	3367.38
663.84	3344.17
664.16	3325.78
664.49	3357.65
664.82	3336.97
665.15	3353.45
665.48	3339.22
665.80	3326.17
666.13	3322.16
666.46	3319.01
666.79	3297.57
667.12	3297.63
667.44	3296.60
667.77	3294.60
668.10	3279.51
668.43	3274.41
668.75	3265.98
669.08	3271.36
669.41	3256.39
669.73	3254.51
670.06	3239.14
670.39	3234.27
670.72	3235.35
671.04	3221.52
671.37	3228.54
671.70	3212.42
672.02	3213.74
672.35	3209.05
672.68	3194.53
673.00	3191.43
673.33	3191.90
673.66	3179.56
673.98	3169.80
674.31	3159.94
674.64	3150.71
674.96	3146.97
675.29	3141.25
675.62	3128.95
675.94	3124.58
676.27	3124.03
676.60	3115.93
676.92	3113.51
677.25	3113.28
677.58	3093.35
677.90	3085.63
678.23	3083.74
678.55	3080.11
678.88	3067.97
679.21	3059.45
679.53	3057.60
679.86	3046.22
680.18	3053.49
680.51	3033.47
680.83	3032.08
681.16	3012.18
681.49	3015.26
681.81	3000.17
682.14	3005.75
682.46	2997.41
682.79	2977.00
683.11	2985.22
683.44	2949.40
683.76	2972.31
684.09	2963.35
684.41	2950.35
684.74	2936.92
685.06	2925.68
685.39	2923.29
685.71	2917.03
686.04	2921.96
686.36	2909.06
686.69	2907.99
687.01	2874.32
687.34	2885.44
687.66	2871.02
687.99	2863.87
688.31	2851.92
688.64	2860.03
688.96	2842.67
689.29	2835.84
689.61	2830.84
689.93	2820.55
690.26	2815.37
690.58	2814.56
690.91	2794.14
691.23	2797.89
691.56	2788.75
691.88	2783.54
692.20	2773.86
692.53	2763.12
692.85	2753.52
693.18	2760.57
693.50	2733.91
693.82	2723.09
694.15	2721.82
694.47	2715.60
694.79	2693.81
695.12	2686.30
695.44	2670.60
695.76	2666.29
696.09	2662.03
696.41	2650.89
696.73	2648.81
697.06	2646.97
697.38	2616.31
697.70	2621.03
698.03	2608.27
698.35	2596.88
698.67	2587.64
699.00	2571.19
699.32	2565.05
699.64	2556.57
699.97	2538.65
700.29	2533.54
700.61	2525.24
700.93	2517.14
701.26	2500.84
701.58	2487.26
701.90	2491.39
702.22	2466.27
702.55	2461.67
702.87	2444.96
703.19	2441.28
703.51	2422.18
703.84	2416.59
704.16	2390.69
704.48	2398.28
704.80	2370.87
705.13	2378.18
705.45	2357.52
705.77	2353.74
706.09	2338.39
706.41	2328.09
706.74	2307.38
707.06	2297.97
707.38	2284.55
707.70	2277.15
708.02	2254.17
708.34	2245.90
708.67	2235.22
708.99	2226.40
709.31	2198.16
709.63	2195.64
709.95	2175.12
710.27	2166.29
710.59	2152.33
710.92	2139.99
711.24	2123.02
711.56	2108.19
711.88	2086.69
712.20	2072.70
712.52	2067.38
712.84	2046.79
713.16	2032.96
713.48	2008.83
713.80	2001.32
714.12	1974.46
714.45	1975.83
714.77	1942.09
715.09	1922.85
715.41	1911.80
715.73	1887.15
716.05	1869.42
716.37	1849.77
716.69	1825.95
717.01	1808.93
717.33	1789.18
717.65	1765.65
717.97	1746.33
718.29	1725.89
718.61	1701.60
718.93	1689.66
719.25	1653.63
719.57	1645.11
719.89	1623.44
720.21	1600.69
720.53	1576.61
720.85	1561.86
721.17	1527.83
721.49	1507.69
721.81	1486.02
722.13	1467.54
722.45	1440.12
722.77	1422.18
723.09	1403.23
723.41	1383.55
723.72	1354.93
724.04	1341.09
724.36	1322.76
724.68	1307.07
725.00	1293.40
725.32	1263.18
725.64	1253.41
725.96	1232.73
726.28	1216.57
726.60	1206.47
726.91	1189.64
727.23	1174.56
727.55	1160.45
727.87	1154.43
728.19	1131.39
728.51	1125.98
728.83	1109.88
729.14	1097.38
729.46	1090.27
729.78	1079.36
730.10	1065.21
730.42	1062.90
730.74	1050.92
731.05	1044.60
731.37	1038.08
731.69	1035.29
732.01	1025.68
732.33	1023.34
732.64	1017.40
732.96	1015.86
733.28	1011.38
733.60	1007.17
733.92	1005.54
734.23	1004.89
734.55	1006.45
734.87	1002.42
735.19	1002.26
735.50	1003.03
735.82	998.81
736.14	1002.11
736.45	1004.25
736.77	1005.00
737.09	1000.51
737.41	1002.48
737.72	1005.99
738.04	1009.01
738.36	1009.71
738.67	1014.68
738.99	1015.38
739.31	1016.74
739.63	1024.26
739.94	1025.64
740.26	1032.59
740.58	1036.78
740.89	1043.59
741.21	1044.45
741.52	1054.90
741.84	1061.21
742.16	1065.14
742.47	1072.51
742.79	1081.44
743.11	1087.88
743.42	1096.59
743.74	1110.70
744.05	1110.68
744.37	1117.61
744.69	1123.48
745.00	1126.89
745.32	1137.16
745.63	1143.76
745.95	1146.69
746.27	1156.42
746.58	1159.82
746.90	1167.23
747.21	1175.28
747.53	1184.48
747.84	1181.55
748.16	1187.02
748.47	1197.18
748.79	1206.59
749.10	1213.11
749.42	1214.47
749.74	1220.26
750.05	1230.84
750.37	1233.61
750.68	1235.77
751.00	1247.92
751.31	1256.84
751.62	1257.10
751.94	1273.86
752.25	1276.97
752.57	1294.73
752.88	1293.42
753.20	1302.75
753.51	1303.53
753.83	1313.64
754.14	1324.69
754.46	1327.52
754.77	1331.19
755.08	1345.74
755.40	1354.05
755.71	1358.68
756.03	1367.57
756.34	1378.11
756.66	1381.84
756.97	1384.81
757.28	1397.89
757.60	1396.46
757.91	1403.89
758.22	1409.53
758.54	1415.82
758.85	1424.43
759.17	1425.35
759.48	1434.50
759.79	1436.76
760.11	1432.97
760.42	1447.60
760.73	1443.65
761.05	1457.35
761.36	1458.13
761.67	1464.63
761.99	1472.56
762.30	1476.50
762.61	1477.47
762.92	1485.37
763.24	1485.16
763.55	1488.30
763.86	1489.15
764.18	1503.32
764.49	1499.04
764.80	1495.47
765.11	1512.14
765.43	1500.39
765.74	1508.65
766.05	1517.19
766.36	1508.24
766.68	1513.69
766.99	1522.20
767.30	1516.19
767.61	1514.30
767.93	1512.91
768.24	1518.44
768.55	1520.21
768.86	1515.44
769.17	1510.84
769.49	1513.30
769.80	1517.31
770.11	1507.50
770.42	1510.30
770.73	1501.55
771.04	1504.92
771.36	1498.20
771.67	1497.94
771.98	1499.37
772.29	1487.74
772.60	1490.83
772.91	1483.06
773.22	1479.86
773.54	1482.09
773.85	1475.58
774.16	1467.94
774.47	1463.97
774.78	1462.25
775.09	1449.66
775.40	1446.25
775.71	1443.10
776.02	1447.26
776.33	1432.69
776.64	1426.13
776.96	1426.26
777.27	1415.73
777.58	1410.30
777.89	1403.29
778.20	1392.85
778.51	1393.57
778.82	1380.76
779.13	1372.83
779.44	1376.79
779.75	1361.74
780.06	1349.82
780.37	1347.69
780.68	1338.40
780.99	1333.17
781.30	1325.26
781.61	1316.68
781.92	1311.85
782.23	1305.96
782.54	1296.15
782.85	1286.36
783.16	1272.15
783.47	1272.03
783.78	1261.59
784.08	1256.70
784.39	1242.63
784.70	1239.24
785.01	1223.80
785.32	1225.06
785.63	1209.33
785.94	1200.54
786.25	1193.29
786.56	1185.57
786.87	1175.49
787.18	1168.02
787.48	1156.67
787.79	1147.49
788.10	1137.37
788.41	1130.20
788.72	1120.48
789.03	1110.18
789.34	1094.87
789.64	1089.17
789.95	1086.25
790.26	1073.74
790.57	1059.14
790.88	1058.55
791.19	1043.45
791.49	1032.85
791.80	1019.49
792.11	1014.47
792.42	1011.44
792.73	993.46
793.03	987.06
793.34	980.92
793.65	967.20
793.96	963.16
794.27	955.10
794.57	946.42
794.88	941.27
795.19	930.26
795.50	922.93
795.80	916.37
796.11	907.89
796.42	905.07
796.72	890.83
797.03	889.30
797.34	876.25
797.65	873.44
797.95	869.82
798.26	861.22
798.57	852.90
798.87	846.55
799.18	844.35
799.49	834.66
799.79	826.34
800.10	821.47
800.41	814.74
800.71	802.52
801.02	804.09
801.33	793.92
801.63	793.05
801.94	782.02
802.24	778.01
802.55	769.57
802.86	766.26
803.16	760.59
803.47	756.58
803.77	753.07
804.08	742.60
804.39	739.44
804.69	731.89
805.00	724.53
805.30	724.78
805.61	713.03
805.91	708.43
806.22	705.81
806.53	701.86
806.83	692.16
807.14	689.84
807.44	679.11
807.75	675.82
808.05	671.41
808.36	670.32
808.66	663.44
808.97	654.59
809.27	651.56
809.58	644.48
809.88	642.71
810.19	640.34
810.49	632.07
810.80	626.40
811.10	620.91
811.41	612.81
811.71	610.83
812.01	606.09
812.32	598.54
812.62	594.99
812.93	591.55
813.23	586.62
813.54	576.57
813.84	573.75
814.14	567.88
814.45	563.03
814.75	559.55
815.06	555.27
815.36	549.91
815.66	544.26
815.97	536.93
816.27	537.58
816.58	530.75
816.88	528.49
817.18	522.19
817.49	518.51
817.79	513.65
818.09	509.94
818.40	507.50
818.70	500.83
819.00	495.40
819.31	492.84
819.61	489.67
819.91	482.65
820.21	481.97
820.52	474.17
820.82	468.30
821.12	466.54
821.43	463.31
821.73	458.14
822.03	453.70
822.33	448.62
822.64	446.63
822.94	442.71
823.24	436.54
823.54	432.18
823.85	428.11
824.15	424.85
824.45	421.12
824.75	416.38
825.05	414.98
825.36	408.51
825.66	404.76
825.96	400.87
826.26	397.65
826.56	391.96
826.87	388.25
827.17	384.86
827.47	381.48
827.77	377.03
828.07	372.89
828.37	369.40
828.67	366.36
828.98	363.13
829.28	359.44
829.58	355.25
829.88	352.78
830.18	349.65
830.48	345.29
830.78	342.15
831.08	339.43
831.38	334.59
831.69	332.10
831.99	328.30
832.29	325.96
832.59	321.93
832.89	317.80
833.19	314.46
833.49	312.03
833.79	308.68
834.09	306.95
834.39	302.63
834.69	299.00
834.99	296.30
835.29	292.95
835.59	290.50
835.89	287.56
836.19	284.24
836.49	281.16
836.79	278.25
837.09	276.21
837.39	272.82
837.69	271.45
837.99	268.06
838.29	265.36
838.59	263.21
838.89	261.27
839.19	260.13
839.49	257.11
839.79	254.82
840.09	252.61
840.39	250.66
840.68	248.46
840.98	246.52
841.28	244.09
841.58	243.08
841.88	241.45
842.18	239.30
842.48	237.17
842.78	236.58
843.08	235.24
843.37	232.88
843.67	231.12
843.97	228.99
844.27	227.21
844.57	225.64
844.87	224.21
845.16	222.21
845.46	220.87
845.76	219.25
846.06	218.25
846.36	215.89
846.66	215.49
846.95	213.24
847.25	212.51
847.55	210.39
847.85	209.56
848.14	208.48
848.44	207.05
848.74	205.43
849.04	204.86
849.33	203.61
849.63	202.27
849.93	200.88
850.23	200.23
850.52	199.53
850.82	198.33
851.12	196.62
851.42	196.20
851.71	196.32
852.01	195.38
852.31	194.15
852.60	192.74
852.90	192.92
853.20	192.47
853.49	191.30
853.79	190.31
854.09	190.23
854.38	189.08
854.68	188.40
854.98	188.25
855.27	188.14
855.57	186.88
855.86	186.89
856.16	187.10
856.46	186.73
856.75	186.22
857.05	185.68
857.34	185.57
857.64	185.04
857.94	186.42
858.23	184.83
858.53	185.05
858.82	184.38
859.12	184.42
859.41	183.60
859.71	183.96
860.01	183.57
860.30	183.72
860.60	183.57
860.89	186.05
861.19	183.93
861.48	184.39
861.78	184.01
862.07	183.85
862.37	183.52
862.66	184.01
862.96	183.35
863.25	182.70
863.55	184.33
863.84	183.83
864.13	183.52
864.43	183.54
864.72	183.78
865.02	183.09
865.31	183.58
865.61	183.35
865.90	183.32
866.19	183.77
866.49	183.20
866.78	183.59
867.08	183.08
867.37	183.80
867.66	184.30
867.96	183.86
868.25	183.86
868.55	183.52
868.84	183.62
869.13	183.73
869.43	182.88
869.72	182.85
870.01	183.07
870.31	183.13
870.60	183.18
870.89	183.36
871.19	183.10
871.48	182.65
871.77	182.47
872.07	182.87
872.36	182.47
872.65	182.41
872.94	182.26
873.24	182.48
873.53	181.92
873.82	181.73
874.11	181.87
874.41	181.97
874.70	182.52
>>>>>End Processed Spectral Data<<<<<
