SpectraSuite Data File
++++++++++++++++++++++++++++++++++++
Date: Thu Apr 23 21:19:55 BST 2015
User: mpfc3
Dark Spectrum Present: Yes
Reference Spectrum Present: Yes
Number of Sampled Component Spectra: 1
Spectrometers: USB2E3636
Integration Time (usec): 30000 (USB2E3636)
Spectra Averaged: 100 (USB2E3636)
Boxcar Smoothing: 0 (USB2E3636)
Correct for Electrical Dark: No (USB2E3636)
Strobe/Lamp Enabled: No (USB2E3636)
Correct for Detector Non-linearity: No (USB2E3636)
Correct for Stray Light: No (USB2E3636)
Number of Pixels in Processed Spectrum: 2048
>>>>>Begin Processed Spectral Data<<<<<
180.28	0.000
180.65	639.216
181.02	385.276
181.39	560.504
181.77	1268.627
182.14	598.333
182.51	430.994
182.88	786.047
183.25	589.565
183.63	1983.871
184.00	823.750
184.37	714.943
184.74	580.833
185.11	488.889
185.49	1789.474
185.86	298.739
186.23	426.190
186.60	459.868
186.97	419.277
187.35	768.085
187.72	592.727
188.09	1112.069
188.46	533.333
188.83	466.443
189.20	-157.364
189.58	-23.105
189.95	-26.515
190.32	-25.541
190.69	-27.378
191.06	-24.231
191.43	-23.140
191.81	-28.151
192.18	-26.518
192.55	-27.332
192.92	-26.166
193.29	-25.206
193.66	-24.130
194.03	-26.480
194.41	-24.571
194.78	-22.295
195.15	-25.703
195.52	-26.634
195.89	-26.981
196.26	-24.362
196.63	-22.992
197.01	-27.879
197.38	-21.495
197.75	-25.196
198.12	-23.013
198.49	-29.921
198.86	-25.728
199.23	-26.265
199.60	-27.097
199.98	-28.704
200.35	-26.832
200.72	-28.033
201.09	-29.236
201.46	-28.374
201.83	-24.464
202.20	-26.942
202.57	-25.516
202.94	-29.492
203.31	-23.764
203.69	-25.264
204.06	-26.422
204.43	-28.650
204.80	-27.813
205.17	-29.512
205.54	-26.079
205.91	-31.795
206.28	-28.782
206.65	-26.854
207.02	-26.722
207.39	-24.917
207.76	-27.068
208.14	-27.441
208.51	-32.797
208.88	-27.602
209.25	-26.223
209.62	-33.550
209.99	-25.084
210.36	-30.202
210.73	-28.274
211.10	-31.834
211.47	-31.206
211.84	-27.616
212.21	-30.602
212.58	-30.006
212.95	-28.939
213.32	-31.700
213.69	-29.344
214.06	-29.532
214.43	-30.888
214.80	-29.196
215.17	-26.824
215.55	-31.921
215.92	-28.614
216.29	-31.912
216.66	-33.115
217.03	-30.175
217.40	-30.949
217.77	-29.142
218.14	-31.356
218.51	-30.220
218.88	-30.850
219.25	-31.149
219.62	-32.187
219.99	-29.426
220.36	-37.124
220.73	-21.483
221.10	-31.489
221.47	-26.582
221.84	-34.037
222.21	-33.761
222.58	-29.975
222.95	-31.948
223.32	-26.542
223.69	-28.936
224.06	-35.202
224.43	-28.617
224.80	-31.997
225.17	-35.785
225.54	-29.700
225.91	-36.200
226.27	-28.125
226.64	-33.785
227.01	-31.518
227.38	-40.490
227.75	-29.693
228.12	-29.710
228.49	-34.440
228.86	-31.880
229.23	-31.324
229.60	-37.073
229.97	-45.270
230.34	-37.653
230.71	-29.286
231.08	-34.694
231.45	-36.942
231.82	-33.356
232.19	-34.405
232.56	-37.186
232.93	-33.659
233.30	-34.346
233.66	-33.564
234.03	-36.790
234.40	-28.476
234.77	-38.179
235.14	-33.591
235.51	-35.552
235.88	-36.070
236.25	-32.524
236.62	-39.040
236.99	-37.748
237.36	-36.646
237.73	-37.836
238.09	-32.498
238.46	-41.249
238.83	-36.042
239.20	-33.612
239.57	-42.186
239.94	-35.197
240.31	-38.643
240.68	-38.309
241.05	-39.794
241.41	-35.663
241.78	-39.075
242.15	-37.096
242.52	-45.538
242.89	-35.286
243.26	-39.970
243.63	-37.617
244.00	-33.835
244.36	-38.628
244.73	-37.990
245.10	-38.382
245.47	-40.576
245.84	-39.653
246.21	-42.141
246.58	-39.454
246.94	-42.419
247.31	-35.303
247.68	-34.212
248.05	-33.502
248.42	-43.865
248.79	-36.130
249.15	-37.673
249.52	-43.592
249.89	-36.427
250.26	-43.038
250.63	-40.241
251.00	-34.493
251.36	-43.854
251.73	-36.502
252.10	-48.016
252.47	-42.133
252.84	-43.908
253.20	-40.093
253.57	-47.638
253.94	-41.509
254.31	-38.004
254.68	-46.324
255.05	-46.612
255.41	-43.675
255.78	-43.750
256.15	-37.114
256.52	-39.449
256.88	-40.877
257.25	-35.835
257.62	-48.025
257.99	-44.558
258.36	-35.893
258.72	-41.979
259.09	-42.408
259.46	-40.356
259.83	-39.488
260.19	-36.641
260.56	-39.117
260.93	-38.340
261.30	-43.416
261.67	-48.223
262.03	-43.036
262.40	-40.593
262.77	-40.204
263.14	-40.563
263.50	-45.796
263.87	-41.096
264.24	-46.470
264.61	-42.314
264.97	-37.481
265.34	-38.365
265.71	-48.229
266.07	-41.757
266.44	-40.952
266.81	-48.902
267.18	-43.976
267.54	-43.069
267.91	-43.296
268.28	-38.167
268.64	-44.527
269.01	-39.572
269.38	-39.903
269.75	-42.845
270.11	-44.389
270.48	-42.785
270.85	-41.891
271.21	-42.391
271.58	-48.908
271.95	-46.358
272.32	-45.425
272.68	-38.125
273.05	-46.539
273.42	-43.367
273.78	-45.172
274.15	-40.545
274.52	-47.465
274.88	-43.237
275.25	-45.516
275.62	-49.691
275.98	-45.232
276.35	-39.887
276.72	-40.113
277.08	-43.101
277.45	-47.951
277.82	-47.064
278.18	-43.489
278.55	-37.795
278.92	-36.619
279.28	-42.282
279.65	-40.552
280.01	-47.020
280.38	-45.868
280.75	-43.310
281.11	-43.227
281.48	-35.341
281.85	-45.175
282.21	-37.709
282.58	-45.050
282.95	-40.846
283.31	-41.956
283.68	-36.058
284.04	-39.446
284.41	-41.036
284.78	-48.207
285.14	-36.232
285.51	-47.885
285.87	-42.597
286.24	-45.425
286.61	-45.577
286.97	-46.295
287.34	-41.855
287.70	-44.983
288.07	-43.867
288.44	-47.267
288.80	-46.002
289.17	-42.336
289.53	-42.555
289.90	-42.558
290.26	-51.213
290.63	-45.380
291.00	-43.123
291.36	-38.671
291.73	-40.810
292.09	-41.019
292.46	-43.257
292.82	-43.134
293.19	-41.469
293.56	-45.946
293.92	-39.363
294.29	-44.942
294.65	-38.841
295.02	-39.749
295.38	-41.811
295.75	-36.055
296.11	-45.134
296.48	-40.082
296.84	-38.669
297.21	-52.283
297.57	-36.805
297.94	-47.391
298.30	-40.474
298.67	-36.612
299.04	-37.409
299.40	-46.467
299.77	-35.160
300.13	-42.823
300.50	-38.233
300.86	-37.472
301.23	-42.147
301.59	-45.576
301.96	-43.586
302.32	-40.797
302.69	-40.171
303.05	-39.690
303.42	-40.803
303.78	-36.502
304.14	-36.136
304.51	-43.700
304.87	-40.124
305.24	-36.909
305.60	-42.167
305.97	-38.473
306.33	-39.486
306.70	-35.493
307.06	-40.472
307.43	-32.583
307.79	-38.654
308.16	-39.845
308.52	-38.485
308.88	-35.338
309.25	-38.153
309.61	-38.138
309.98	-46.077
310.34	-33.695
310.71	-34.552
311.07	-37.309
311.44	-38.950
311.80	-35.371
312.16	-39.194
312.53	-34.257
312.89	-33.285
313.26	-40.301
313.62	-34.526
313.98	-38.231
314.35	-32.592
314.71	-33.681
315.08	-34.246
315.44	-28.187
315.80	-34.369
316.17	-36.326
316.53	-30.728
316.90	-32.361
317.26	-26.441
317.62	-31.534
317.99	-33.868
318.35	-30.222
318.72	-29.722
319.08	-39.986
319.44	-31.028
319.81	-28.002
320.17	-30.390
320.53	-28.937
320.90	-25.635
321.26	-27.300
321.62	-29.663
321.99	-34.824
322.35	-26.886
322.72	-26.243
323.08	-27.914
323.44	-30.458
323.81	-29.333
324.17	-30.691
324.53	-27.826
324.90	-28.051
325.26	-26.995
325.62	-27.623
325.99	-29.722
326.35	-27.192
326.71	-25.244
327.08	-26.840
327.44	-23.792
327.80	-22.507
328.16	-26.437
328.53	-23.221
328.89	-26.298
329.25	-24.292
329.62	-19.687
329.98	-21.140
330.34	-20.424
330.71	-22.120
331.07	-22.650
331.43	-16.839
331.79	-19.527
332.16	-17.468
332.52	-17.377
332.88	-23.835
333.24	-17.730
333.61	-22.025
333.97	-20.297
334.33	-18.630
334.70	-19.288
335.06	-16.857
335.42	-19.646
335.78	-17.744
336.15	-19.279
336.51	-18.071
336.87	-15.755
337.23	-15.522
337.60	-16.818
337.96	-16.400
338.32	-17.251
338.68	-13.354
339.04	-11.927
339.41	-17.686
339.77	-13.016
340.13	-14.995
340.49	-14.938
340.86	-12.532
341.22	-15.924
341.58	-17.776
341.94	-14.051
342.30	-12.454
342.67	-14.563
343.03	-13.265
343.39	-14.357
343.75	-12.714
344.11	-12.244
344.48	-11.919
344.84	-13.175
345.20	-11.786
345.56	-9.704
345.92	-13.184
346.28	-12.012
346.65	-9.070
347.01	-10.406
347.37	-9.561
347.73	-11.001
348.09	-10.517
348.45	-8.860
348.82	-8.892
349.18	-10.084
349.54	-9.139
349.90	-8.651
350.26	-9.749
350.62	-8.134
350.98	-9.262
351.35	-9.332
351.71	-9.563
352.07	-8.421
352.43	-8.345
352.79	-9.259
353.15	-7.241
353.51	-9.400
353.87	-7.488
354.24	-6.881
354.60	-8.576
354.96	-7.133
355.32	-8.206
355.68	-7.671
356.04	-6.026
356.40	-7.735
356.76	-8.894
357.12	-7.546
357.48	-6.572
357.85	-7.087
358.21	-6.901
358.57	-6.197
358.93	-6.739
359.29	-6.499
359.65	-6.346
360.01	-5.784
360.37	-6.374
360.73	-6.451
361.09	-6.531
361.45	-5.934
361.81	-5.681
362.17	-6.468
362.53	-5.681
362.89	-6.437
363.25	-6.098
363.62	-6.451
363.98	-5.524
364.34	-4.956
364.70	-4.929
365.06	-5.056
365.42	-5.016
365.78	-4.350
366.14	-4.778
366.50	-4.284
366.86	-4.736
367.22	-4.173
367.58	-5.158
367.94	-3.913
368.30	-4.188
368.66	-3.652
369.02	-3.960
369.38	-4.296
369.74	-3.750
370.10	-3.891
370.46	-4.212
370.82	-4.315
371.18	-3.266
371.54	-3.653
371.90	-2.942
372.26	-3.815
372.62	-4.244
372.98	-3.479
373.33	-3.574
373.69	-3.335
374.05	-2.831
374.41	-3.128
374.77	-3.443
375.13	-3.007
375.49	-2.458
375.85	-3.264
376.21	-2.724
376.57	-2.388
376.93	-2.394
377.29	-2.522
377.65	-2.307
378.01	-2.126
378.37	-2.271
378.73	-2.129
379.08	-1.999
379.44	-1.889
379.80	-1.836
380.16	-1.516
380.52	-1.806
380.88	-1.242
381.24	-1.842
381.60	-1.413
381.96	-1.964
382.32	-1.438
382.67	-1.180
383.03	-1.279
383.39	-0.865
383.75	-0.731
384.11	-0.900
384.47	-0.697
384.83	-0.872
385.19	-0.549
385.54	-0.854
385.90	-0.608
386.26	0.067
386.62	0.020
386.98	0.371
387.34	0.239
387.70	0.070
388.05	0.283
388.41	0.701
388.77	0.752
389.13	0.637
389.49	0.652
389.85	0.658
390.20	1.521
390.56	1.179
390.92	1.307
391.28	1.334
391.64	1.394
391.99	1.412
392.35	1.985
392.71	2.032
393.07	1.691
393.43	2.132
393.78	2.096
394.14	2.384
394.50	2.471
394.86	2.612
395.22	2.406
395.57	2.558
395.93	2.804
396.29	2.932
396.65	3.028
397.00	3.528
397.36	3.673
397.72	3.455
398.08	3.517
398.43	3.776
398.79	3.992
399.15	4.071
399.51	4.193
399.86	4.336
400.22	4.418
400.58	4.159
400.94	4.807
401.29	4.555
401.65	4.773
402.01	5.030
402.37	5.116
402.72	5.393
403.08	5.202
403.44	5.460
403.79	5.700
404.15	5.544
404.51	5.455
404.86	6.117
405.22	5.799
405.58	5.921
405.94	6.126
406.29	6.506
406.65	6.283
407.01	6.492
407.36	6.643
407.72	7.024
408.08	7.063
408.43	6.883
408.79	7.186
409.15	6.842
409.50	7.436
409.86	7.520
410.22	7.422
410.57	7.653
410.93	7.911
411.29	8.117
411.64	7.981
412.00	8.119
412.35	8.165
412.71	8.537
413.07	8.682
413.42	8.755
413.78	8.887
414.14	8.986
414.49	9.110
414.85	9.198
415.20	9.357
415.56	9.387
415.92	9.440
416.27	9.549
416.63	9.538
416.98	9.838
417.34	10.007
417.70	10.036
418.05	10.355
418.41	10.530
418.76	10.490
419.12	10.302
419.47	10.745
419.83	10.924
420.19	10.953
420.54	10.957
420.90	11.148
421.25	11.192
421.61	11.543
421.96	11.348
422.32	11.680
422.67	11.455
423.03	11.838
423.39	11.918
423.74	11.921
424.10	12.151
424.45	12.252
424.81	12.346
425.16	12.271
425.52	12.429
425.87	12.642
426.23	12.796
426.58	12.778
426.94	12.782
427.29	13.123
427.65	13.075
428.00	13.312
428.36	13.351
428.71	13.564
429.07	13.610
429.42	13.621
429.78	13.628
430.13	13.806
430.49	14.047
430.84	14.108
431.19	14.326
431.55	14.244
431.90	14.309
432.26	14.370
432.61	14.432
432.97	14.839
433.32	14.878
433.68	14.883
434.03	14.724
434.39	15.036
434.74	15.146
435.09	15.203
435.45	15.263
435.80	15.336
436.16	15.482
436.51	15.563
436.86	15.647
437.22	15.802
437.57	15.886
437.93	15.953
438.28	16.148
438.63	16.045
438.99	16.204
439.34	16.432
439.70	16.327
440.05	16.502
440.40	16.482
440.76	16.691
441.11	16.808
441.47	16.862
441.82	16.827
442.17	17.100
442.53	17.169
442.88	17.299
443.23	17.316
443.59	17.301
443.94	17.402
444.29	17.521
444.65	17.708
445.00	17.821
445.35	17.810
445.71	17.859
446.06	18.118
446.41	18.080
446.77	18.094
447.12	18.237
447.47	18.358
447.83	18.475
448.18	18.481
448.53	18.535
448.89	18.589
449.24	18.653
449.59	18.889
449.94	18.923
450.30	19.001
450.65	19.001
451.00	19.219
451.36	19.207
451.71	19.285
452.06	19.419
452.41	19.572
452.77	19.597
453.12	19.622
453.47	19.750
453.82	19.862
454.18	19.921
454.53	20.027
454.88	20.059
455.23	20.291
455.59	20.113
455.94	20.371
456.29	20.517
456.64	20.458
457.00	20.681
457.35	20.775
457.70	20.846
458.05	20.865
458.40	20.921
458.76	21.134
459.11	21.153
459.46	21.065
459.81	21.139
460.16	21.248
460.52	21.351
460.87	21.513
461.22	21.566
461.57	21.614
461.92	21.763
462.28	21.844
462.63	21.774
462.98	21.962
463.33	22.001
463.68	22.091
464.03	22.191
464.38	22.278
464.74	22.337
465.09	22.390
465.44	22.424
465.79	22.550
466.14	22.627
466.49	22.590
466.84	22.693
467.20	22.920
467.55	22.913
467.90	22.918
468.25	23.053
468.60	23.053
468.95	23.043
469.30	23.244
469.65	23.199
470.00	23.331
470.36	23.357
470.71	23.362
471.06	23.343
471.41	23.495
471.76	23.602
472.11	23.547
472.46	23.634
472.81	23.634
473.16	23.750
473.51	23.752
473.86	23.797
474.21	23.819
474.56	23.881
474.91	23.866
475.26	23.964
475.62	23.905
475.97	23.951
476.32	23.977
476.67	23.986
477.02	24.036
477.37	24.033
477.72	24.159
478.07	24.076
478.42	24.086
478.77	24.111
479.12	23.999
479.47	24.101
479.82	24.107
480.17	24.121
480.52	24.125
480.87	24.092
481.22	24.129
481.57	24.194
481.92	24.197
482.27	24.197
482.62	24.209
482.97	24.170
483.32	24.208
483.67	24.238
484.02	24.187
484.36	24.219
484.71	24.231
485.06	24.322
485.41	24.280
485.76	24.350
486.11	24.387
486.46	24.332
486.81	24.393
487.16	24.401
487.51	24.517
487.86	24.573
488.21	24.646
488.56	24.708
488.91	24.659
489.25	24.721
489.60	24.789
489.95	24.828
490.30	24.932
490.65	24.967
491.00	25.012
491.35	25.054
491.70	25.153
492.05	25.208
492.39	25.305
492.74	25.325
493.09	25.453
493.44	25.486
493.79	25.560
494.14	25.617
494.49	25.632
494.83	25.777
495.18	25.903
495.53	25.905
495.88	25.969
496.23	26.126
496.58	26.104
496.92	26.189
497.27	26.362
497.62	26.419
497.97	26.389
498.32	26.560
498.67	26.605
499.01	26.665
499.36	26.743
499.71	26.759
500.06	26.850
500.41	26.955
500.75	27.021
501.10	27.078
501.45	27.133
501.80	27.149
502.14	27.287
502.49	27.281
502.84	27.286
503.19	27.433
503.53	27.456
503.88	27.483
504.23	27.530
504.58	27.584
504.92	27.581
505.27	27.745
505.62	27.720
505.97	27.750
506.31	27.847
506.66	27.835
507.01	27.841
507.36	27.860
507.70	27.822
508.05	27.940
508.40	27.892
508.74	27.909
509.09	27.932
509.44	27.908
509.79	27.864
510.13	27.823
510.48	27.849
510.83	27.798
511.17	27.784
511.52	27.783
511.87	27.706
512.21	27.820
512.56	27.701
512.91	27.726
513.25	27.823
513.60	27.787
513.95	27.786
514.29	27.897
514.64	27.908
514.98	27.869
515.33	27.985
515.68	28.008
516.02	28.035
516.37	28.037
516.72	28.090
517.06	28.146
517.41	28.227
517.75	28.236
518.10	28.200
518.45	28.234
518.79	28.303
519.14	28.367
519.48	28.345
519.83	28.429
520.18	28.372
520.52	28.373
520.87	28.443
521.21	28.381
521.56	28.353
521.90	28.412
522.25	28.427
522.60	28.402
522.94	28.414
523.29	28.425
523.63	28.384
523.98	28.371
524.32	28.421
524.67	28.434
525.01	28.295
525.36	28.325
525.70	28.278
526.05	28.252
526.39	28.190
526.74	28.185
527.08	28.141
527.43	28.028
527.77	28.021
528.12	27.994
528.46	27.926
528.81	27.769
529.15	27.764
529.50	27.677
529.84	27.633
530.19	27.496
530.53	27.405
530.88	27.190
531.22	27.219
531.57	27.045
531.91	26.970
532.26	26.889
532.60	26.741
532.94	26.581
533.29	26.387
533.63	26.275
533.98	26.115
534.32	25.925
534.67	25.743
535.01	25.585
535.35	25.376
535.70	25.221
536.04	25.031
536.39	24.842
536.73	24.664
537.07	24.474
537.42	24.288
537.76	24.109
538.11	23.877
538.45	23.690
538.79	23.484
539.14	23.289
539.48	23.113
539.82	22.922
540.17	22.704
540.51	22.508
540.85	22.444
541.20	22.240
541.54	22.096
541.89	21.965
542.23	21.793
542.57	21.733
542.92	21.639
543.26	21.491
543.60	21.393
543.94	21.329
544.29	21.273
544.63	21.151
544.97	21.116
545.32	21.078
545.66	21.090
546.00	21.091
546.35	21.068
546.69	20.999
547.03	21.056
547.37	21.055
547.72	21.078
548.06	21.106
548.40	21.121
548.75	21.173
549.09	21.204
549.43	21.259
549.77	21.352
550.12	21.393
550.46	21.498
550.80	21.596
551.14	21.653
551.49	21.727
551.83	21.942
552.17	22.026
552.51	22.122
552.85	22.284
553.20	22.403
553.54	22.588
553.88	22.709
554.22	22.867
554.56	23.059
554.91	23.351
555.25	23.500
555.59	23.687
555.93	23.881
556.27	24.068
556.62	24.310
556.96	24.510
557.30	24.735
557.64	24.942
557.98	25.221
558.32	25.431
558.67	25.670
559.01	25.918
559.35	26.147
559.69	26.379
560.03	26.589
560.37	26.791
560.71	27.047
561.05	27.321
561.40	27.449
561.74	27.610
562.08	27.856
562.42	28.038
562.76	28.262
563.10	28.435
563.44	28.563
563.78	28.686
564.12	28.882
564.46	29.074
564.81	29.184
565.15	29.286
565.49	29.402
565.83	29.578
566.17	29.652
566.51	29.776
566.85	29.824
567.19	29.949
567.53	30.005
567.87	30.093
568.21	30.131
568.55	30.123
568.89	30.208
569.23	30.198
569.57	30.208
569.91	30.193
570.25	30.195
570.59	30.234
570.93	30.207
571.27	30.182
571.61	30.183
571.95	30.161
572.29	30.072
572.63	30.014
572.97	29.929
573.31	29.885
573.65	29.849
573.99	29.730
574.33	29.720
574.67	29.578
575.01	29.411
575.35	29.352
575.69	29.307
576.03	29.244
576.37	29.072
576.71	28.928
577.05	28.801
577.39	28.645
577.73	28.546
578.06	28.328
578.40	28.257
578.74	28.057
579.08	27.860
579.42	27.810
579.76	27.587
580.10	27.372
580.44	27.203
580.78	27.059
581.12	26.859
581.45	26.660
581.79	26.489
582.13	26.271
582.47	26.126
582.81	25.955
583.15	25.741
583.49	25.592
583.83	25.428
584.16	25.227
584.50	25.058
584.84	25.016
585.18	24.813
585.52	24.704
585.86	24.550
586.19	24.389
586.53	24.303
586.87	24.147
587.21	23.976
587.55	23.870
587.88	23.688
588.22	23.599
588.56	23.380
588.90	23.214
589.24	23.076
589.57	22.859
589.91	22.685
590.25	22.494
590.59	22.336
590.92	22.126
591.26	21.920
591.60	21.709
591.94	21.502
592.27	21.221
592.61	21.065
592.95	20.812
593.29	20.583
593.62	20.328
593.96	20.018
594.30	19.775
594.64	19.451
594.97	19.196
595.31	18.817
595.65	18.547
595.98	18.211
596.32	17.865
596.66	17.490
597.00	17.113
597.33	16.696
597.67	16.295
598.01	15.889
598.34	15.463
598.68	15.058
599.02	14.680
599.35	14.243
599.69	13.856
600.03	13.517
600.36	13.157
600.70	12.832
601.03	12.488
601.37	12.231
601.71	11.925
602.04	11.688
602.38	11.382
602.72	11.210
603.05	10.923
603.39	10.673
603.72	10.447
604.06	10.224
604.40	9.967
604.73	9.689
605.07	9.470
605.40	9.222
605.74	8.980
606.08	8.679
606.41	8.483
606.75	8.219
607.08	7.993
607.42	7.734
607.75	7.501
608.09	7.272
608.42	7.022
608.76	6.772
609.10	6.494
609.43	6.263
609.77	6.015
610.10	5.805
610.44	5.545
610.77	5.315
611.11	5.103
611.44	4.898
611.78	4.633
612.11	4.448
612.45	4.263
612.78	4.023
613.12	3.847
613.45	3.656
613.79	3.494
614.12	3.316
614.46	3.132
614.79	2.995
615.13	2.820
615.46	2.706
615.79	2.576
616.13	2.423
616.46	2.337
616.80	2.218
617.13	2.115
617.47	2.034
617.80	1.969
618.13	1.869
618.47	1.788
618.80	1.728
619.14	1.648
619.47	1.594
619.81	1.536
620.14	1.491
620.47	1.422
620.81	1.398
621.14	1.345
621.47	1.325
621.81	1.232
622.14	1.202
622.48	1.172
622.81	1.139
623.14	1.091
623.48	1.113
623.81	1.050
624.14	1.032
624.48	1.028
624.81	0.986
625.14	0.973
625.48	0.963
625.81	0.980
626.14	0.934
626.48	0.949
626.81	0.949
627.14	0.952
627.48	0.935
627.81	0.958
628.14	0.969
628.47	0.977
628.81	0.967
629.14	1.034
629.47	1.044
629.81	1.077
630.14	1.138
630.47	1.166
630.80	1.209
631.14	1.270
631.47	1.306
631.80	1.358
632.13	1.450
632.47	1.508
632.80	1.569
633.13	1.674
633.46	1.746
633.79	1.878
634.13	1.961
634.46	2.074
634.79	2.202
635.12	2.358
635.45	2.494
635.79	2.639
636.12	2.775
636.45	2.943
636.78	3.110
637.11	3.285
637.45	3.490
637.78	3.655
638.11	3.873
638.44	4.092
638.77	4.299
639.10	4.502
639.44	4.738
639.77	4.975
640.10	5.168
640.43	5.417
640.76	5.636
641.09	5.903
641.42	6.107
641.75	6.371
642.08	6.642
642.42	6.851
642.75	7.107
643.08	7.352
643.41	7.565
643.74	7.782
644.07	8.016
644.40	8.259
644.73	8.471
645.06	8.720
645.39	8.934
645.72	9.148
646.05	9.345
646.38	9.543
646.72	9.714
647.05	9.922
647.38	10.136
647.71	10.290
648.04	10.415
648.37	10.569
648.70	10.738
649.03	10.860
649.36	10.991
649.69	11.096
650.02	11.173
650.35	11.292
650.68	11.305
651.01	11.338
651.34	11.353
651.67	11.372
652.00	11.398
652.33	11.322
652.66	11.299
652.99	11.175
653.31	11.112
653.64	10.972
653.97	10.831
654.30	10.693
654.63	10.515
654.96	10.324
655.29	10.082
655.62	9.868
655.95	9.653
656.28	9.414
656.61	9.164
656.94	8.838
657.27	8.635
657.60	8.395
657.92	8.098
658.25	7.894
658.58	7.672
658.91	7.452
659.24	7.216
659.57	6.988
659.90	6.807
660.23	6.599
660.55	6.435
660.88	6.255
661.21	6.068
661.54	5.886
661.87	5.748
662.20	5.560
662.52	5.407
662.85	5.281
663.18	5.081
663.51	4.959
663.84	4.842
664.16	4.689
664.49	4.562
664.82	4.450
665.15	4.303
665.48	4.180
665.80	4.083
666.13	3.964
666.46	3.843
666.79	3.753
667.12	3.690
667.44	3.566
667.77	3.468
668.10	3.421
668.43	3.303
668.75	3.254
669.08	3.191
669.41	3.091
669.73	3.008
670.06	2.964
670.39	2.930
670.72	2.858
671.04	2.806
671.37	2.767
671.70	2.719
672.02	2.639
672.35	2.635
672.68	2.605
673.00	2.555
673.33	2.513
673.66	2.489
673.98	2.467
674.31	2.409
674.64	2.423
674.96	2.381
675.29	2.391
675.62	2.341
675.94	2.322
676.27	2.310
676.60	2.317
676.92	2.277
677.25	2.294
677.58	2.273
677.90	2.260
678.23	2.237
678.55	2.240
678.88	2.225
679.21	2.230
679.53	2.201
679.86	2.191
680.18	2.199
680.51	2.172
680.83	2.125
681.16	2.141
681.49	2.124
681.81	2.100
682.14	2.072
682.46	2.068
682.79	2.046
683.11	2.019
683.44	2.026
683.76	1.978
684.09	1.962
684.41	1.983
684.74	1.960
685.06	1.953
685.39	1.927
685.71	1.871
686.04	1.917
686.36	1.897
686.69	1.872
687.01	1.859
687.34	1.837
687.66	1.848
687.99	1.827
688.31	1.798
688.64	1.768
688.96	1.748
689.29	1.747
689.61	1.708
689.93	1.691
690.26	1.686
690.58	1.624
690.91	1.608
691.23	1.573
691.56	1.528
691.88	1.519
692.20	1.482
692.53	1.440
692.85	1.391
693.18	1.380
693.50	1.333
693.82	1.254
694.15	1.191
694.47	1.133
694.79	1.132
695.12	1.046
695.44	1.033
695.76	0.923
696.09	0.936
696.41	0.849
696.73	0.821
697.06	0.760
697.38	0.710
697.70	0.659
698.03	0.583
698.35	0.570
698.67	0.490
699.00	0.449
699.32	0.409
699.64	0.383
699.97	0.346
700.29	0.288
700.61	0.258
700.93	0.230
701.26	0.176
701.58	0.167
701.90	0.140
702.22	0.084
702.55	0.071
702.87	0.031
703.19	0.039
703.51	0.007
703.84	0.013
704.16	-0.021
704.48	-0.040
704.80	-0.064
705.13	-0.033
705.45	-0.070
705.77	-0.097
706.09	-0.119
706.41	-0.081
706.74	-0.136
707.06	-0.136
707.38	-0.169
707.70	-0.136
708.02	-0.170
708.34	-0.112
708.67	-0.202
708.99	-0.155
709.31	-0.174
709.63	-0.218
709.95	-0.199
710.27	-0.202
710.59	-0.216
710.92	-0.202
711.24	-0.178
711.56	-0.207
711.88	-0.223
712.20	-0.203
712.52	-0.227
712.84	-0.228
713.16	-0.220
713.48	-0.219
713.80	-0.255
714.12	-0.246
714.45	-0.256
714.77	-0.237
715.09	-0.241
715.41	-0.258
715.73	-0.249
716.05	-0.271
716.37	-0.281
716.69	-0.278
717.01	-0.271
717.33	-0.252
717.65	-0.337
717.97	-0.282
718.29	-0.299
718.61	-0.303
718.93	-0.288
719.25	-0.344
719.57	-0.263
719.89	-0.296
720.21	-0.300
720.53	-0.290
720.85	-0.288
721.17	-0.334
721.49	-0.327
721.81	-0.318
722.13	-0.350
722.45	-0.367
722.77	-0.390
723.09	-0.421
723.41	-0.378
723.72	-0.391
724.04	-0.440
724.36	-0.432
724.68	-0.392
725.00	-0.403
725.32	-0.436
725.64	-0.470
725.96	-0.500
726.28	-0.449
726.60	-0.461
726.91	-0.501
727.23	-0.509
727.55	-0.507
727.87	-0.470
728.19	-0.508
728.51	-0.520
728.83	-0.496
729.14	-0.533
729.46	-0.592
729.78	-0.560
730.10	-0.508
730.42	-0.511
730.74	-0.600
731.05	-0.591
731.37	-0.556
731.69	-0.597
732.01	-0.587
732.33	-0.461
732.64	-0.535
732.96	-0.549
733.28	-0.688
733.60	-0.559
733.92	-0.616
734.23	-0.619
734.55	-0.650
734.87	-0.603
735.19	-0.613
735.50	-0.628
735.82	-0.590
736.14	-0.600
736.45	-0.582
736.77	-0.577
737.09	-0.603
737.41	-0.527
737.72	-0.636
738.04	-0.598
738.36	-0.623
738.67	-0.581
738.99	-0.526
739.31	-0.599
739.63	-0.683
739.94	-0.637
740.26	-0.553
740.58	-0.660
740.89	-0.621
741.21	-0.595
741.52	-0.662
741.84	-0.552
742.16	-0.544
742.47	-0.616
742.79	-0.546
743.11	-0.556
743.42	-0.563
743.74	-0.550
744.05	-0.497
744.37	-0.535
744.69	-0.660
745.00	-0.547
745.32	-0.547
745.63	-0.447
745.95	-0.575
746.27	-0.619
746.58	-0.580
746.90	-0.597
747.21	-0.544
747.53	-0.531
747.84	-0.485
748.16	-0.443
748.47	-0.499
748.79	-0.574
749.10	-0.482
749.42	-0.500
749.74	-0.527
750.05	-0.506
750.37	-0.479
750.68	-0.515
751.00	-0.516
751.31	-0.485
751.62	-0.491
751.94	-0.479
752.25	-0.484
752.57	-0.455
752.88	-0.501
753.20	-0.463
753.51	-0.531
753.83	-0.478
754.14	-0.430
754.46	-0.493
754.77	-0.472
755.08	-0.472
755.40	-0.438
755.71	-0.487
756.03	-0.511
756.34	-0.467
756.66	-0.495
756.97	-0.466
757.28	-0.395
757.60	-0.422
757.91	-0.496
758.22	-0.451
758.54	-0.420
758.85	-0.432
759.17	-0.449
759.48	-0.429
759.79	-0.429
760.11	-0.499
760.42	-0.502
760.73	-0.456
761.05	-0.393
761.36	-0.452
761.67	-0.442
761.99	-0.406
762.30	-0.466
762.61	-0.377
762.92	-0.458
763.24	-0.396
763.55	-0.390
763.86	-0.426
764.18	-0.405
764.49	-0.422
764.80	-0.409
765.11	-0.386
765.43	-0.482
765.74	-0.316
766.05	-0.373
766.36	-0.414
766.68	-0.407
766.99	-0.436
767.30	-0.445
767.61	-0.407
767.93	-0.374
768.24	-0.436
768.55	-0.447
768.86	-0.385
769.17	-0.422
769.49	-0.448
769.80	-0.424
770.11	-0.389
770.42	-0.371
770.73	-0.427
771.04	-0.415
771.36	-0.422
771.67	-0.374
771.98	-0.398
772.29	-0.453
772.60	-0.490
772.91	-0.433
773.22	-0.444
773.54	-0.475
773.85	-0.435
774.16	-0.417
774.47	-0.377
774.78	-0.450
775.09	-0.417
775.40	-0.413
775.71	-0.425
776.02	-0.394
776.33	-0.435
776.64	-0.439
776.96	-0.507
777.27	-0.452
777.58	-0.516
777.89	-0.429
778.20	-0.451
778.51	-0.448
778.82	-0.496
779.13	-0.451
779.44	-0.465
779.75	-0.545
780.06	-0.558
780.37	-0.515
780.68	-0.434
780.99	-0.497
781.30	-0.458
781.61	-0.456
781.92	-0.475
782.23	-0.509
782.54	-0.458
782.85	-0.533
783.16	-0.496
783.47	-0.548
783.78	-0.477
784.08	-0.542
784.39	-0.506
784.70	-0.543
785.01	-0.548
785.32	-0.581
785.63	-0.567
785.94	-0.549
786.25	-0.583
786.56	-0.609
786.87	-0.550
787.18	-0.599
787.48	-0.540
787.79	-0.493
788.10	-0.626
788.41	-0.579
788.72	-0.610
789.03	-0.620
789.34	-0.624
789.64	-0.548
789.95	-0.629
790.26	-0.681
790.57	-0.588
790.88	-0.594
791.19	-0.639
791.49	-0.652
791.80	-0.654
792.11	-0.653
792.42	-0.668
792.73	-0.557
793.03	-0.649
793.34	-0.725
793.65	-0.689
793.96	-0.755
794.27	-0.837
794.57	-0.730
794.88	-0.787
795.19	-0.761
795.50	-0.708
795.80	-0.805
796.11	-0.788
796.42	-0.702
796.72	-0.841
797.03	-0.831
797.34	-0.798
797.65	-0.798
797.95	-0.771
798.26	-0.914
798.57	-0.816
798.87	-0.881
799.18	-0.809
799.49	-0.809
799.79	-0.835
800.10	-0.963
800.41	-1.120
800.71	-0.868
801.02	-0.930
801.33	-0.996
801.63	-0.867
801.94	-0.903
802.24	-1.080
802.55	-0.939
802.86	-0.949
803.16	-1.013
803.47	-1.027
803.77	-0.899
804.08	-0.968
804.39	-1.038
804.69	-1.104
805.00	-1.091
805.30	-0.965
805.61	-1.200
805.91	-0.972
806.22	-1.040
806.53	-1.041
806.83	-1.001
807.14	-1.208
807.44	-1.137
807.75	-1.225
808.05	-1.207
808.36	-1.193
808.66	-1.208
808.97	-1.240
809.27	-1.174
809.58	-1.058
809.88	-1.358
810.19	-1.314
810.49	-1.323
810.80	-1.256
811.10	-1.301
811.41	-1.259
811.71	-1.420
812.01	-1.310
812.32	-1.630
812.62	-1.354
812.93	-1.360
813.23	-1.200
813.54	-1.590
813.84	-1.536
814.14	-1.409
814.45	-1.453
814.75	-1.411
815.06	-1.320
815.36	-1.652
815.66	-1.705
815.97	-1.527
816.27	-1.778
816.58	-1.527
816.88	-1.716
817.18	-1.589
817.49	-1.560
817.79	-1.729
818.09	-1.679
818.40	-1.614
818.70	-1.705
819.00	-1.848
819.31	-1.926
819.61	-1.849
819.91	-1.925
820.21	-1.909
820.52	-2.077
820.82	-1.948
821.12	-2.092
821.43	-2.019
821.73	-2.001
822.03	-2.070
822.33	-2.033
822.64	-1.808
822.94	-2.265
823.24	-2.162
823.54	-2.142
823.85	-2.377
824.15	-2.564
824.45	-2.242
824.75	-2.259
825.05	-2.386
825.36	-2.298
825.66	-2.453
825.96	-2.281
826.26	-2.489
826.56	-2.454
826.87	-2.430
827.17	-2.355
827.47	-2.697
827.77	-2.682
828.07	-2.870
828.37	-2.812
828.67	-3.104
828.98	-2.796
829.28	-3.248
829.58	-3.260
829.88	-3.185
830.18	-3.025
830.48	-3.233
830.78	-2.962
831.08	-3.078
831.38	-3.324
831.69	-3.178
831.99	-3.680
832.29	-3.455
832.59	-3.955
832.89	-4.047
833.19	-4.007
833.49	-3.795
833.79	-3.862
834.09	-3.854
834.39	-4.059
834.69	-4.161
834.99	-4.605
835.29	-4.124
835.59	-4.096
835.89	-4.019
836.19	-4.656
836.49	-4.935
836.79	-5.114
837.09	-5.192
837.39	-5.288
837.69	-4.859
837.99	-5.418
838.29	-5.610
838.59	-5.530
838.89	-5.543
839.19	-5.792
839.49	-6.574
839.79	-6.309
840.09	-5.897
840.39	-6.407
840.68	-7.227
840.98	-7.382
841.28	-7.496
841.58	-6.824
841.88	-7.427
842.18	-8.135
842.48	-7.661
842.78	-7.602
843.08	-6.868
843.37	-8.438
843.67	-8.236
843.97	-7.883
844.27	-9.107
844.57	-9.195
844.87	-9.060
845.16	-9.698
845.46	-8.680
845.76	-8.989
846.06	-9.665
846.36	-9.817
846.66	-10.968
846.95	-9.815
847.25	-10.798
847.55	-10.631
847.85	-12.282
848.14	-10.575
848.44	-13.120
848.74	-14.040
849.04	-12.166
849.33	-12.795
849.63	-12.545
849.93	-13.478
850.23	-13.809
850.52	-12.848
850.82	-13.649
851.12	-15.269
851.42	-16.254
851.71	-14.831
852.01	-13.620
852.31	-18.127
852.60	-16.618
852.90	-16.140
853.20	-14.924
853.49	-18.655
853.79	-17.787
854.09	-18.300
854.38	-18.409
854.68	-17.936
854.98	-17.438
855.27	-17.130
855.57	-17.249
855.86	-19.747
856.16	-19.631
856.46	-18.575
856.75	-22.514
857.05	-19.735
857.34	-22.338
857.64	-20.732
857.94	-18.616
858.23	-20.454
858.53	-19.170
858.82	-22.138
859.12	-21.598
859.41	-20.519
859.71	-22.527
860.01	-20.557
860.30	-18.875
860.60	-21.193
860.89	-20.863
861.19	-22.693
861.48	-19.854
861.78	-21.138
862.07	-21.268
862.37	-21.793
862.66	-23.410
862.96	-22.301
863.25	-22.754
863.55	-18.424
863.84	-24.632
864.13	-21.084
864.43	-21.496
864.72	-20.765
865.02	-19.568
865.31	-23.329
865.61	-21.548
865.90	-19.366
866.19	-21.797
866.49	-23.673
866.78	-22.781
867.08	-23.173
867.37	-27.951
867.66	-21.818
867.96	-21.736
868.25	-20.833
868.55	-22.464
868.84	-20.808
869.13	-21.187
869.43	-23.270
869.72	-23.617
870.01	-21.253
870.31	-22.959
870.60	-24.954
870.89	-22.125
871.19	-26.090
871.48	-21.477
871.77	-22.091
872.07	-22.531
872.36	-22.319
872.65	-20.598
872.94	-22.466
873.24	-22.450
873.53	-20.527
873.82	-24.388
874.11	-21.899
874.41	-23.183
874.70	-20.247
>>>>>End Processed Spectral Data<<<<<
